Typical Measured Spectrum of Semrock FF01-515/LP Optical Filter	
For wavelengths between 320 and 1120 nm, values near or below 3e-7 (Optical Density 6.5) are measurement noise limited.
For wavelengths < 320 nm and > 1120 nm, values near or below 3e-6 (Optical Density 5.5) are measurement noise limited. 
Data format:  Wavelength (nm) <tab> Transmission (0 to 1)
341.0	1.0e-07
341.2	1.0e-07
341.4	1.0e-07
341.6	1.0e-07
341.8	1.0e-07
342.0	1.0e-07
342.2	1.0e-07
342.4	1.0e-07
342.6	1.0e-07
342.8	1.0e-07
343.0	1.0e-07
343.2	1.0e-07
343.4	1.0e-07
343.6	1.0e-07
343.8	1.0e-07
344.0	1.0e-07
344.2	1.0e-07
344.4	1.0e-07
344.6	1.0e-07
344.8	1.0e-07
345.0	1.0e-07
345.2	1.0e-07
345.4	1.0e-07
345.6	1.0e-07
345.8	1.0e-07
346.0	1.0e-07
346.2	1.0e-07
346.4	1.0e-07
346.6	1.0e-07
346.8	1.0e-07
347.0	1.0e-07
347.2	1.0e-07
347.4	1.0e-07
347.6	1.0e-07
347.8	1.0e-07
348.0	1.0e-07
348.2	1.0e-07
348.4	1.0e-07
348.6	1.0e-07
348.8	1.0e-07
349.0	1.0e-07
349.2	1.0e-07
349.4	1.0e-07
349.6	1.0e-07
349.8	1.0e-07
350.0	1.0e-07
350.2	1.0e-07
350.4	1.0e-07
350.6	1.0e-07
350.8	1.0e-07
351.0	1.0e-07
351.2	1.0e-07
351.4	1.0e-07
351.6	1.0e-07
351.8	1.0e-07
352.0	1.0e-07
352.2	1.0e-07
352.4	1.0e-07
352.6	1.0e-07
352.8	1.0e-07
353.0	1.0e-07
353.2	1.0e-07
353.4	1.0e-07
353.6	1.0e-07
353.8	1.0e-07
354.0	1.0e-07
354.2	1.0e-07
354.4	1.0e-07
354.6	1.0e-07
354.8	1.0e-07
355.0	1.0e-07
355.2	1.0e-07
355.4	1.0e-07
355.6	1.0e-07
355.8	1.0e-07
356.0	1.0e-07
356.2	1.0e-07
356.4	1.0e-07
356.6	1.0e-07
356.8	1.0e-07
357.0	1.0e-07
357.2	1.0e-07
357.4	1.0e-07
357.6	1.0e-07
357.8	1.0e-07
358.0	1.0e-07
358.2	1.0e-07
358.4	1.0e-07
358.6	1.0e-07
358.8	1.0e-07
359.0	1.0e-07
359.2	1.0e-07
359.4	1.0e-07
359.6	1.0e-07
359.8	1.0e-07
360.0	1.0e-07
360.2	1.0e-07
360.4	1.0e-07
360.6	1.0e-07
360.8	1.0e-07
361.0	1.0e-07
361.2	1.0e-07
361.4	1.0e-07
361.6	1.0e-07
361.8	1.0e-07
362.0	1.0e-07
362.2	1.0e-07
362.4	1.0e-07
362.6	1.0e-07
362.8	1.0e-07
363.0	1.0e-07
363.2	1.0e-07
363.4	1.0e-07
363.6	1.0e-07
363.8	1.0e-07
364.0	1.0e-07
364.2	1.0e-07
364.4	1.0e-07
364.6	1.0e-07
364.8	1.0e-07
365.0	1.0e-07
365.2	1.0e-07
365.4	1.0e-07
365.6	1.0e-07
365.8	1.0e-07
366.0	1.0e-07
366.2	1.0e-07
366.4	1.0e-07
366.6	1.0e-07
366.8	1.0e-07
367.0	1.0e-07
367.2	1.0e-07
367.4	1.0e-07
367.6	1.0e-07
367.8	1.0e-07
368.0	1.0e-07
368.2	1.0e-07
368.4	1.0e-07
368.6	1.0e-07
368.8	1.0e-07
369.0	1.0e-07
369.2	1.0e-07
369.4	1.0e-07
369.6	1.0e-07
369.8	1.0e-07
370.0	1.0e-07
370.2	1.0e-07
370.4	1.0e-07
370.6	1.0e-07
370.8	1.0e-07
371.0	1.0e-07
371.2	1.0e-07
371.4	1.0e-07
371.6	1.0e-07
371.8	1.0e-07
372.0	1.0e-07
372.2	1.0e-07
372.4	1.0e-07
372.6	1.0e-07
372.8	1.0e-07
373.0	1.0e-07
373.2	1.0e-07
373.4	1.0e-07
373.6	1.0e-07
373.8	1.0e-07
374.0	1.0e-07
374.2	1.0e-07
374.4	1.0e-07
374.6	1.0e-07
374.8	1.0e-07
375.0	1.0e-07
375.2	1.0e-07
375.4	1.0e-07
375.6	1.0e-07
375.8	1.0e-07
376.0	1.0e-07
376.2	1.0e-07
376.4	1.0e-07
376.6	1.0e-07
376.8	1.0e-07
377.0	1.0e-07
377.2	1.0e-07
377.4	1.0e-07
377.6	1.0e-07
377.8	1.0e-07
378.0	1.0e-07
378.2	1.0e-07
378.4	1.0e-07
378.6	1.0e-07
378.8	1.0e-07
379.0	1.0e-07
379.2	1.0e-07
379.4	1.0e-07
379.6	1.0e-07
379.8	1.0e-07
380.0	1.0e-07
380.2	1.0e-07
380.4	1.0e-07
380.6	1.0e-07
380.8	1.0e-07
381.0	1.0e-07
381.2	1.0e-07
381.4	1.0e-07
381.6	1.0e-07
381.8	1.0e-07
382.0	1.0e-07
382.2	1.0e-07
382.4	1.0e-07
382.6	1.0e-07
382.8	1.0e-07
383.0	1.0e-07
383.2	1.0e-07
383.4	1.0e-07
383.6	1.0e-07
383.8	1.0e-07
384.0	1.0e-07
384.2	1.0e-07
384.4	1.0e-07
384.6	1.0e-07
384.8	1.0e-07
385.0	1.0e-07
385.2	1.0e-07
385.4	1.0e-07
385.6	1.0e-07
385.8	1.0e-07
386.0	1.0e-07
386.2	1.0e-07
386.4	1.0e-07
386.6	1.0e-07
386.8	1.0e-07
387.0	1.0e-07
387.2	1.0e-07
387.4	1.0e-07
387.6	1.0e-07
387.8	1.0e-07
388.0	1.0e-07
388.2	1.0e-07
388.4	1.0e-07
388.6	1.0e-07
388.8	1.0e-07
389.0	1.0e-07
389.2	1.0e-07
389.4	1.0e-07
389.6	1.0e-07
389.8	1.0e-07
390.0	1.0e-07
390.2	1.0e-07
390.4	1.0e-07
390.6	1.0e-07
390.8	1.0e-07
391.0	1.0e-07
391.2	1.0e-07
391.4	1.0e-07
391.6	1.0e-07
391.8	1.0e-07
392.0	1.0e-07
392.2	1.0e-07
392.4	1.0e-07
392.6	1.0e-07
392.8	1.0e-07
393.0	1.0e-07
393.2	1.0e-07
393.4	1.0e-07
393.6	1.0e-07
393.8	1.0e-07
394.0	1.0e-07
394.2	1.0e-07
394.4	1.0e-07
394.6	1.0e-07
394.8	1.0e-07
395.0	1.0e-07
395.2	1.0e-07
395.4	1.0e-07
395.6	1.0e-07
395.8	1.0e-07
396.0	1.0e-07
396.2	1.0e-07
396.4	1.0e-07
396.6	1.0e-07
396.8	1.0e-07
397.0	1.0e-07
397.2	1.0e-07
397.4	1.0e-07
397.6	1.0e-07
397.8	1.0e-07
398.0	1.0e-07
398.2	1.0e-07
398.4	1.0e-07
398.6	1.0e-07
398.8	1.0e-07
399.0	1.0e-07
399.2	1.0e-07
399.4	1.0e-07
399.6	1.0e-07
399.8	1.0e-07
400.0	1.0e-07
400.2	1.0e-07
400.4	1.0e-07
400.6	1.0e-07
400.8	1.0e-07
401.0	1.0e-07
401.2	1.0e-07
401.4	1.0e-07
401.6	1.0e-07
401.8	1.0e-07
402.0	1.0e-07
402.2	1.0e-07
402.4	1.0e-07
402.6	1.0e-07
402.8	1.0e-07
403.0	1.0e-07
403.2	1.0e-07
403.4	1.0e-07
403.6	1.0e-07
403.8	1.0e-07
404.0	1.0e-07
404.2	1.0e-07
404.4	1.0e-07
404.6	1.0e-07
404.8	1.0e-07
405.0	1.0e-07
405.2	1.0e-07
405.4	1.0e-07
405.6	1.0e-07
405.8	1.0e-07
406.0	1.0e-07
406.2	1.0e-07
406.4	1.0e-07
406.6	1.0e-07
406.8	1.0e-07
407.0	1.0e-07
407.2	1.0e-07
407.4	1.0e-07
407.6	1.0e-07
407.8	1.0e-07
408.0	1.0e-07
408.2	1.0e-07
408.4	1.0e-07
408.6	1.0e-07
408.8	1.0e-07
409.0	1.0e-07
409.2	1.0e-07
409.4	1.0e-07
409.6	1.0e-07
409.8	1.0e-07
410.0	1.0e-07
410.2	1.0e-07
410.4	1.0e-07
410.6	1.0e-07
410.8	1.0e-07
411.0	1.0e-07
411.2	1.0e-07
411.4	1.0e-07
411.6	1.0e-07
411.8	1.0e-07
412.0	1.0e-07
412.2	1.0e-07
412.4	1.0e-07
412.6	1.0e-07
412.8	1.0e-07
413.0	1.0e-07
413.2	1.0e-07
413.4	1.0e-07
413.6	1.0e-07
413.8	1.0e-07
414.0	1.0e-07
414.2	1.0e-07
414.4	1.0e-07
414.6	1.0e-07
414.8	1.0e-07
415.0	1.0e-07
415.2	1.0e-07
415.4	1.0e-07
415.6	1.0e-07
415.8	1.0e-07
416.0	1.0e-07
416.2	1.0e-07
416.4	1.0e-07
416.6	1.0e-07
416.8	1.0e-07
417.0	1.0e-07
417.2	1.0e-07
417.4	1.0e-07
417.6	1.0e-07
417.8	1.0e-07
418.0	1.0e-07
418.2	1.0e-07
418.4	1.0e-07
418.6	1.0e-07
418.8	1.0e-07
419.0	1.0e-07
419.2	1.0e-07
419.4	1.0e-07
419.6	1.0e-07
419.8	1.0e-07
420.0	1.0e-07
420.2	1.0e-07
420.4	1.0e-07
420.6	1.0e-07
420.8	1.0e-07
421.0	1.0e-07
421.2	1.0e-07
421.4	1.0e-07
421.6	1.0e-07
421.8	1.0e-07
422.0	1.0e-07
422.2	1.0e-07
422.4	1.0e-07
422.6	1.0e-07
422.8	1.0e-07
423.0	1.0e-07
423.2	1.0e-07
423.4	1.0e-07
423.6	1.0e-07
423.8	1.0e-07
424.0	1.0e-07
424.2	1.0e-07
424.4	1.0e-07
424.6	1.0e-07
424.8	1.0e-07
425.0	1.0e-07
425.2	1.0e-07
425.4	1.0e-07
425.6	1.0e-07
425.8	1.0e-07
426.0	1.0e-07
426.2	1.0e-07
426.4	1.0e-07
426.6	1.0e-07
426.8	1.0e-07
427.0	1.0e-07
427.2	1.0e-07
427.4	1.0e-07
427.6	1.0e-07
427.8	1.0e-07
428.0	1.0e-07
428.2	1.0e-07
428.4	1.0e-07
428.6	1.0e-07
428.8	1.0e-07
429.0	1.0e-07
429.2	1.0e-07
429.4	1.0e-07
429.6	1.0e-07
429.8	1.0e-07
430.0	1.0e-07
430.2	1.0e-07
430.4	1.0e-07
430.6	1.0e-07
430.8	1.0e-07
431.0	1.0e-07
431.2	1.0e-07
431.4	1.0e-07
431.6	1.0e-07
431.8	1.0e-07
432.0	1.0e-07
432.2	1.0e-07
432.4	1.0e-07
432.6	1.0e-07
432.8	1.0e-07
433.0	1.0e-07
433.2	1.0e-07
433.4	1.0e-07
433.6	1.0e-07
433.8	1.0e-07
434.0	1.0e-07
434.2	1.0e-07
434.4	1.0e-07
434.6	1.0e-07
434.8	1.0e-07
435.0	1.0e-07
435.2	1.0e-07
435.4	1.0e-07
435.6	1.0e-07
435.8	1.0e-07
436.0	1.0e-07
436.2	1.0e-07
436.4	1.0e-07
436.6	1.0e-07
436.8	1.0e-07
437.0	1.0e-07
437.2	1.0e-07
437.4	1.0e-07
437.6	1.0e-07
437.8	1.0e-07
438.0	1.0e-07
438.2	1.0e-07
438.4	1.0e-07
438.6	1.0e-07
438.8	1.0e-07
439.0	1.0e-07
439.2	1.0e-07
439.4	1.0e-07
439.6	1.0e-07
439.8	1.0e-07
440.0	1.0e-07
440.2	1.0e-07
440.4	1.0e-07
440.6	1.0e-07
440.8	1.0e-07
441.0	1.0e-07
441.2	1.0e-07
441.4	1.0e-07
441.6	1.0e-07
441.8	1.0e-07
442.0	1.0e-07
442.2	1.0e-07
442.4	1.0e-07
442.6	1.0e-07
442.8	1.0e-07
443.0	1.0e-07
443.2	1.0e-07
443.4	1.0e-07
443.6	1.0e-07
443.8	1.0e-07
444.0	1.0e-07
444.2	1.0e-07
444.4	1.0e-07
444.6	1.0e-07
444.8	1.0e-07
445.0	1.0e-07
445.2	1.0e-07
445.4	1.0e-07
445.6	1.0e-07
445.8	1.0e-07
446.0	1.0e-07
446.2	1.0e-07
446.4	1.0e-07
446.6	1.0e-07
446.8	1.0e-07
447.0	1.0e-07
447.2	1.0e-07
447.4	1.0e-07
447.6	1.0e-07
447.8	1.0e-07
448.0	1.0e-07
448.2	1.0e-07
448.4	1.0e-07
448.6	1.0e-07
448.8	1.0e-07
449.0	1.0e-07
449.2	1.0e-07
449.4	1.0e-07
449.6	1.0e-07
449.8	1.0e-07
450.0	1.0e-07
450.2	1.0e-07
450.4	1.0e-07
450.6	1.0e-07
450.8	1.0e-07
451.0	1.0e-07
451.2	1.0e-07
451.4	1.0e-07
451.6	1.0e-07
451.8	1.0e-07
452.0	1.0e-07
452.2	1.0e-07
452.4	1.0e-07
452.6	1.0e-07
452.8	1.0e-07
453.0	1.0e-07
453.2	1.0e-07
453.4	1.0e-07
453.6	1.0e-07
453.8	1.0e-07
454.0	1.0e-07
454.2	1.0e-07
454.4	1.0e-07
454.6	1.0e-07
454.8	1.0e-07
455.0	1.0e-07
455.2	1.0e-07
455.4	1.0e-07
455.6	1.0e-07
455.8	1.0e-07
456.0	1.0e-07
456.2	1.0e-07
456.4	1.0e-07
456.6	1.0e-07
456.8	1.0e-07
457.0	1.0e-07
457.2	1.0e-07
457.4	1.0e-07
457.6	1.0e-07
457.8	1.0e-07
458.0	1.0e-07
458.2	1.0e-07
458.4	1.0e-07
458.6	1.0e-07
458.8	1.0e-07
459.0	1.0e-07
459.2	1.0e-07
459.4	1.0e-07
459.6	1.0e-07
459.8	1.0e-07
460.0	1.0e-07
460.2	1.0e-07
460.4	1.0e-07
460.6	1.0e-07
460.8	1.0e-07
461.0	1.0e-07
461.2	1.0e-07
461.4	1.0e-07
461.6	1.0e-07
461.8	1.0e-07
462.0	1.0e-07
462.2	1.0e-07
462.4	1.0e-07
462.6	1.0e-07
462.8	1.0e-07
463.0	1.0e-07
463.2	1.0e-07
463.4	1.0e-07
463.6	1.0e-07
463.8	1.0e-07
464.0	1.0e-07
464.2	1.0e-07
464.4	1.0e-07
464.6	1.0e-07
464.8	1.0e-07
465.0	1.0e-07
465.2	1.0e-07
465.4	1.0e-07
465.6	1.0e-07
465.8	1.0e-07
466.0	1.0e-07
466.2	1.0e-07
466.4	1.0e-07
466.6	1.0e-07
466.8	1.0e-07
467.0	1.0e-07
467.2	1.0e-07
467.4	1.0e-07
467.6	1.0e-07
467.8	1.0e-07
468.0	1.0e-07
468.2	1.0e-07
468.4	1.0e-07
468.6	1.0e-07
468.8	1.0e-07
469.0	1.0e-07
469.2	1.0e-07
469.4	1.0e-07
469.6	1.0e-07
469.8	1.0e-07
470.0	1.0e-07
470.2	1.0e-07
470.4	1.0e-07
470.6	1.0e-07
470.8	1.0e-07
471.0	1.0e-07
471.2	1.0e-07
471.4	1.0e-07
471.6	1.0e-07
471.8	1.0e-07
472.0	1.0e-07
472.2	1.0e-07
472.4	1.0e-07
472.6	1.0e-07
472.8	1.0e-07
473.0	1.0e-07
473.2	1.0e-07
473.4	1.0e-07
473.6	1.0e-07
473.8	1.0e-07
474.0	1.0e-07
474.2	1.0e-07
474.4	1.0e-07
474.6	1.0e-07
474.8	1.0e-07
475.0	1.0e-07
475.2	1.0e-07
475.4	1.0e-07
475.6	1.0e-07
475.8	1.0e-07
476.0	1.0e-07
476.2	1.0e-07
476.4	1.0e-07
476.6	1.0e-07
476.8	1.0e-07
477.0	1.0e-07
477.2	1.0e-07
477.4	1.0e-07
477.6	1.0e-07
477.8	1.0e-07
478.0	1.0e-07
478.2	1.0e-07
478.4	1.0e-07
478.6	1.0e-07
478.8	1.0e-07
479.0	1.0e-07
479.2	1.0e-07
479.4	1.0e-07
479.6	1.0e-07
479.8	1.0e-07
480.0	1.0e-07
480.2	1.0e-07
480.4	1.0e-07
480.6	1.0e-07
480.8	1.0e-07
481.0	1.0e-07
481.2	1.0e-07
481.4	1.0e-07
481.6	1.0e-07
481.8	1.0e-07
482.0	1.0e-07
482.2	1.0e-07
482.4	1.0e-07
482.6	1.0e-07
482.8	1.0e-07
483.0	1.0e-07
483.2	1.0e-07
483.4	1.0e-07
483.6	1.0e-07
483.8	1.0e-07
484.0	1.0e-07
484.2	1.0e-07
484.4	1.0e-07
484.6	1.0e-07
484.8	1.0e-07
485.0	1.0e-07
485.2	1.0e-07
485.4	1.0e-07
485.6	1.0e-07
485.8	1.0e-07
486.0	1.0e-07
486.2	1.0e-07
486.4	1.0e-07
486.6	1.0e-07
486.8	1.0e-07
487.0	1.0e-07
487.2	1.0e-07
487.4	1.0e-07
487.6	1.0e-07
487.8	1.0e-07
488.0	1.0e-07
488.2	1.0e-07
488.4	1.0e-07
488.6	1.0e-07
488.8	1.0e-07
489.0	1.0e-07
489.2	1.0e-07
489.4	1.0e-07
489.6	1.0e-07
489.8	1.0e-07
490.0	1.0e-07
490.2	1.0e-07
490.4	1.0e-07
490.6	1.0e-07
490.8	1.0e-07
491.0	1.0e-07
491.2	1.0e-07
491.4	1.0e-07
491.6	1.0e-07
491.8	1.0e-07
492.0	1.0e-07
492.2	1.0e-07
492.4	1.0e-07
492.6	1.0e-07
492.8	1.0e-07
493.0	1.0e-07
493.2	1.0e-07
493.4	1.0e-07
493.6	1.0e-07
493.8	1.0e-07
494.0	1.0e-07
494.2	1.0e-07
494.4	1.0e-07
494.6	1.0e-07
494.8	1.0e-07
495.0	1.0e-07
495.2	1.0e-07
495.4	1.0e-07
495.6	1.0e-07
495.8	1.0e-07
496.0	1.0e-07
496.2	1.0e-07
496.4	1.0e-07
496.6	1.0e-07
496.8	1.0e-07
497.0	1.0e-07
497.2	1.0e-07
497.4	1.0e-07
497.6	1.0e-07
497.8	1.0e-07
498.0	1.0e-07
498.2	1.0e-07
498.4	1.0e-07
498.6	1.0e-07
498.8	1.0e-07
499.0	1.0e-07
499.2	1.0e-07
499.4	1.0e-07
499.6	1.0e-07
499.8	1.0e-07
500.0	1.0e-07
500.2	1.0e-07
500.4	1.0e-07
500.6	1.0e-07
500.8	1.0e-07
501.0	1.0e-07
501.2	1.0e-07
501.4	1.0e-07
501.6	1.0e-07
501.8	1.0e-07
502.0	1.0e-07
502.2	1.0e-07
502.4	1.0e-07
502.6	1.0e-07
502.8	1.0e-07
503.0	1.0e-07
503.2	1.0e-07
503.4	1.0e-07
503.6	1.0e-07
503.8	1.0e-07
504.0	1.0e-07
504.2	1.0e-07
504.4	1.0e-07
504.6	1.0e-07
504.8	1.0e-07
505.0	1.0e-07
505.2	1.0e-07
505.4	1.0074e-07
505.6	1.027e-07
505.8	1.0469e-07
506.0	1.0673e-07
506.2	1.088e-07
506.4	1.1091e-07
506.6	1.1307e-07
506.8	1.1526e-07
507.0	1.175e-07
507.2	1.1978e-07
507.4	1.2255e-07
507.6	1.2612e-07
507.8	1.2979e-07
508.0	1.3358e-07
508.2	1.3747e-07
508.4	1.4147e-07
508.6	1.4559e-07
508.8	1.4984e-07
509.0	1.542e-07
509.2	1.5869e-07
509.4	1.8499e-07
509.6	2.666e-07
509.8	3.8421e-07
510.0	5.5372e-07
510.2	7.98e-07
510.4	1.0403e-06
510.6	1.1523e-06
510.8	1.3507e-06
511.0	1.3267e-06
511.2	1.2677e-06
511.4	1.2113e-06
511.6	1.1502e-06
511.8	1.041e-06
512.0	1.0425e-06
512.2	1.2627e-06
512.4	1.5088e-06
512.6	1.4584e-06
512.8	1.4269e-06
513.0	1.3962e-06
513.2	1.3661e-06
513.4	1.3366e-06
513.6	1.3078e-06
513.8	1.2796e-06
514.0	1.252e-06
514.2	1.2251e-06
514.4	1.2161e-06
514.6	1.2393e-06
514.8	1.2629e-06
515.0	1.287e-06
515.2	1.3115e-06
515.4	1.3365e-06
515.6	1.362e-06
515.8	1.3879e-06
516.0	1.4144e-06
516.2	1.6044e-06
516.4	1.811e-06
516.6	1.8519e-06
516.8	2.7879e-06
517.0	3.6248e-06
517.2	4.6462e-06
517.4	6.3847e-06
517.6	9.9214e-06
517.8	1.63e-05
518.0	2.6015e-05
518.2	3.9938e-05
518.4	5.9104e-05
518.6	8.4748e-05
518.8	1.1556e-04
519.0	1.5554e-04
519.2	2.0737e-04
519.4	2.7595e-04
519.6	3.6995e-04
519.8	5.0568e-04
520.0	7.1546e-04
520.2	0.00105
520.4	0.00159
520.6	0.00248
520.8	0.00404
521.0	0.00703
521.2	0.01244
521.4	0.02152
521.6	0.03909
521.8	0.0736
522.0	0.14453
522.2	0.26771
522.4	0.44191
522.6	0.63944
522.8	0.80965
523.0	0.91842
523.2	0.95267
523.4	0.95866
523.6	0.96299
523.8	0.96458
524.0	0.96562
524.2	0.96942
524.4	0.97943
524.6	0.98307
524.8	0.97085
525.0	0.97226
525.2	0.97615
525.4	0.98167
525.6	0.97631
525.8	0.97493
526.0	0.98242
526.2	0.98803
526.4	0.97635
526.6	0.97506
526.8	0.98511
527.0	0.98115
527.2	0.9773
527.4	0.96932
527.6	0.97778
527.8	0.97672
528.0	0.97882
528.2	0.97227
528.4	0.97552
528.6	0.97744
528.8	0.97238
529.0	0.97004
529.2	0.97805
529.4	0.98767
529.6	0.98479
529.8	0.98204
530.0	0.98535
530.2	0.98468
530.4	0.98584
530.6	0.97864
530.8	0.97831
531.0	0.97753
531.2	0.97964
531.4	0.97413
531.6	0.97584
531.8	0.97237
532.0	0.97905
532.2	0.98392
532.4	0.97655
532.6	0.97354
532.8	0.97059
533.0	0.97757
533.2	0.97899
533.4	0.97921
533.6	0.98426
533.8	0.98518
534.0	0.98907
534.2	0.98509
534.4	0.97543
534.6	0.98547
534.8	0.98003
535.0	0.97493
535.2	0.97565
535.4	0.97181
535.6	0.9807
535.8	0.97145
536.0	0.96908
536.2	0.98038
536.4	0.98282
536.6	0.9807
536.8	0.98002
537.0	0.98061
537.2	0.978
537.4	0.98831
537.6	0.97842
537.8	0.97058
538.0	0.97548
538.2	0.98029
538.4	0.98412
538.6	0.98131
538.8	0.98925
539.0	0.98412
539.2	0.9789
539.4	0.97469
539.6	0.98391
539.8	0.97972
540.0	0.98744
540.2	0.99046
540.4	0.97369
540.6	0.97698
540.8	0.97652
541.0	0.97751
541.2	0.97617
541.4	0.97624
541.6	0.97037
541.8	0.97639
542.0	0.97465
542.2	0.97544
542.4	0.97395
542.6	0.9794
542.8	0.98175
543.0	0.98476
543.2	0.97757
543.4	0.97287
543.6	0.9791
543.8	0.97208
544.0	0.97264
544.2	0.98179
544.4	0.99122
544.6	0.98324
544.8	0.98371
545.0	0.97949
545.2	0.98489
545.4	0.97337
545.6	0.9754
545.8	0.97532
546.0	0.97495
546.2	0.97753
546.4	0.97539
546.6	0.979
546.8	0.97805
547.0	0.97548
547.2	0.97678
547.4	0.97328
547.6	0.96908
547.8	0.97148
548.0	0.97774
548.2	0.9757
548.4	0.97808
548.6	0.97358
548.8	0.97466
549.0	0.9753
549.2	0.97679
549.4	0.97499
549.6	0.98296
549.8	0.97545
550.0	0.97896
550.2	0.98814
550.4	0.98389
550.6	0.98089
550.8	0.98384
551.0	0.98249
551.2	0.9805
551.4	0.98019
551.6	0.97504
551.8	0.98159
552.0	0.97337
552.2	0.97887
552.4	0.97552
552.6	0.97827
552.8	0.97738
553.0	0.9759
553.2	0.9699
553.4	0.97151
553.6	0.97428
553.8	0.97749
554.0	0.96749
554.2	0.9706
554.4	0.97242
554.6	0.96795
554.8	0.97392
555.0	0.97422
555.2	0.97554
555.4	0.97191
555.6	0.97701
555.8	0.97628
556.0	0.97838
556.2	0.98293
556.4	0.98055
556.6	0.98078
556.8	0.98388
557.0	0.98894
557.2	0.98376
557.4	0.98509
557.6	0.98314
557.8	0.98142
558.0	0.97687
558.2	0.97819
558.4	0.97759
558.6	0.9817
558.8	0.97759
559.0	0.97793
559.2	0.98318
559.4	0.97839
559.6	0.97078
559.8	0.97396
560.0	0.97807
560.2	0.97828
560.4	0.97591
560.6	0.9702
560.8	0.97279
561.0	0.97642
561.2	0.97225
561.4	0.97816
561.6	0.97322
561.8	0.97334
562.0	0.97795
562.2	0.97643
562.4	0.97086
562.6	0.97255
562.8	0.97503
563.0	0.97764
563.2	0.97387
563.4	0.97276
563.6	0.97747
563.8	0.97695
564.0	0.9782
564.2	0.98007
564.4	0.98257
564.6	0.98309
564.8	0.98144
565.0	0.98003
565.2	0.98219
565.4	0.983
565.6	0.98437
565.8	0.98508
566.0	0.98201
566.2	0.98462
566.4	0.98259
566.6	0.98374
566.8	0.98312
567.0	0.9824
567.2	0.98067
567.4	0.97977
567.6	0.97733
567.8	0.97755
568.0	0.97852
568.2	0.9778
568.4	0.97982
568.6	0.97769
568.8	0.9772
569.0	0.9796
569.2	0.97846
569.4	0.97368
569.6	0.97294
569.8	0.97362
570.0	0.9706
570.2	0.97303
570.4	0.97584
570.6	0.97706
570.8	0.97596
571.0	0.97728
571.2	0.9763
571.4	0.97426
571.6	0.97528
571.8	0.97664
572.0	0.97872
572.2	0.98241
572.4	0.98265
572.6	0.98151
572.8	0.98358
573.0	0.98194
573.2	0.98184
573.4	0.98616
573.6	0.98874
573.8	0.98276
574.0	0.976
574.2	0.98101
574.4	0.98287
574.6	0.98084
574.8	0.98703
575.0	0.98532
575.2	0.97843
575.4	0.97407
575.6	0.97465
575.8	0.97905
576.0	0.97665
576.2	0.97731
576.4	0.98052
576.6	0.9781
576.8	0.97325
577.0	0.9712
577.2	0.97716
577.4	0.98088
577.6	0.97767
577.8	0.97588
578.0	0.97218
578.2	0.96945
578.4	0.97935
578.6	0.98018
578.8	0.97628
579.0	0.97793
579.2	0.98504
579.4	0.98502
579.6	0.98235
579.8	0.9825
580.0	0.9836
580.2	0.98311
580.4	0.9825
580.6	0.97984
580.8	0.98021
581.0	0.98423
581.2	0.98703
581.4	0.98098
581.6	0.98184
581.8	0.98993
582.0	0.98728
582.2	0.98483
582.4	0.98216
582.6	0.98489
582.8	0.98502
583.0	0.98429
583.2	0.98135
583.4	0.98438
583.6	0.98264
583.8	0.9747
584.0	0.97938
584.2	0.97485
584.4	0.97465
584.6	0.98032
584.8	0.97996
585.0	0.97614
585.2	0.97524
585.4	0.97634
585.6	0.9759
585.8	0.96895
586.0	0.97452
586.2	0.97575
586.4	0.97825
586.6	0.97809
586.8	0.97428
587.0	0.97332
587.2	0.97513
587.4	0.9758
587.6	0.97737
587.8	0.97572
588.0	0.97323
588.2	0.97689
588.4	0.97931
588.6	0.97803
588.8	0.98128
589.0	0.98222
589.2	0.98247
589.4	0.97774
589.6	0.97954
589.8	0.98867
590.0	0.98753
590.2	0.98283
590.4	0.97901
590.6	0.98134
590.8	0.98473
591.0	0.98089
591.2	0.985
591.4	0.98835
591.6	0.98852
591.8	0.98558
592.0	0.98921
592.2	0.98934
592.4	0.98814
592.6	0.98423
592.8	0.98496
593.0	0.97502
593.2	0.98113
593.4	0.9878
593.6	0.98911
593.8	0.98075
594.0	0.98077
594.2	0.98594
594.4	0.98115
594.6	0.97943
594.8	0.98052
595.0	0.97752
595.2	0.97322
595.4	0.96927
595.6	0.96924
595.8	0.97808
596.0	0.98236
596.2	0.98033
596.4	0.98112
596.6	0.97164
596.8	0.98186
597.0	0.9802
597.2	0.97314
597.4	0.97612
597.6	0.97699
597.8	0.97388
598.0	0.9771
598.2	0.98279
598.4	0.98016
598.6	0.97724
598.8	0.97431
599.0	0.97565
599.2	0.98022
599.4	0.9801
599.6	0.97837
599.8	0.97742
600.0	0.97554
600.2	0.98003
600.4	0.98426
600.6	0.98422
600.8	0.98719
601.0	0.98441
601.2	0.97738
601.4	0.98158
601.6	0.98874
601.8	0.98699
602.0	0.98502
602.2	0.97873
602.4	0.98067
602.6	0.97645
602.8	0.97833
603.0	0.98244
603.2	0.97771
603.4	0.97077
603.6	0.97697
603.8	0.97991
604.0	0.9786
604.2	0.97145
604.4	0.97938
604.6	0.97147
604.8	0.98323
605.0	0.97484
605.2	0.97845
605.4	0.97493
605.6	0.97997
605.8	0.97422
606.0	0.97555
606.2	0.98
606.4	0.97349
606.6	0.96804
606.8	0.96202
607.0	0.96728
607.2	0.97414
607.4	0.98448
607.6	0.98358
607.8	0.98237
608.0	0.97408
608.2	0.98219
608.4	0.98298
608.6	0.9821
608.8	0.97279
609.0	0.97434
609.2	0.98252
609.4	0.98637
609.6	0.98854
609.8	0.98591
610.0	0.98783
610.2	0.98862
610.4	0.9801
610.6	0.99204
610.8	0.98234
611.0	0.98132
611.2	0.985
611.4	0.98427
611.6	0.98573
611.8	0.98091
612.0	0.98692
612.2	0.98978
612.4	0.97715
612.6	0.97845
612.8	0.97257
613.0	0.97759
613.2	0.97294
613.4	0.97988
613.6	0.98094
613.8	0.98515
614.0	0.98831
614.2	0.98174
614.4	0.98157
614.6	0.97418
614.8	0.97626
615.0	0.98335
615.2	0.98404
615.4	0.9816
615.6	0.97721
615.8	0.97243
616.0	0.97625
616.2	0.97911
616.4	0.97484
616.6	0.97899
616.8	0.98232
617.0	0.98113
617.2	0.97914
617.4	0.97553
617.6	0.97997
617.8	0.97943
618.0	0.98335
618.2	0.98068
618.4	0.97557
618.6	0.98136
618.8	0.97484
619.0	0.97467
619.2	0.98035
619.4	0.98305
619.6	0.98053
619.8	0.9826
620.0	0.98321
620.2	0.98318
620.4	0.97988
620.6	0.98064
620.8	0.98632
621.0	0.9832
621.2	0.98074
621.4	0.97992
621.6	0.98658
621.8	0.98594
622.0	0.98462
622.2	0.98227
622.4	0.98382
622.6	0.98528
622.8	0.98335
623.0	0.98248
623.2	0.98322
623.4	0.984
623.6	0.98656
623.8	0.98208
624.0	0.98702
624.2	0.98466
624.4	0.98488
624.6	0.98139
624.8	0.98075
625.0	0.9775
625.2	0.97671
625.4	0.98141
625.6	0.97916
625.8	0.98292
626.0	0.9822
626.2	0.97881
626.4	0.97768
626.6	0.97469
626.8	0.97442
627.0	0.97523
627.2	0.97853
627.4	0.97801
627.6	0.98191
627.8	0.97902
628.0	0.98142
628.2	0.9779
628.4	0.97767
628.6	0.97728
628.8	0.97781
629.0	0.98052
629.2	0.97907
629.4	0.98145
629.6	0.98128
629.8	0.97894
630.0	0.9813
630.2	0.98557
630.4	0.98207
630.6	0.98776
630.8	0.98625
631.0	0.98587
631.2	0.98142
631.4	0.984
631.6	0.98461
631.8	0.98438
632.0	0.98091
632.2	0.98256
632.4	0.98485
632.6	0.98569
632.8	0.9904
633.0	0.99017
633.2	0.99166
633.4	0.988
633.6	0.98294
633.8	0.98647
634.0	0.98716
634.2	0.98635
634.4	0.98632
634.6	0.98872
634.8	0.98902
635.0	0.98629
635.2	0.98438
635.4	0.98606
635.6	0.99269
635.8	0.99064
636.0	0.98525
636.2	0.98468
636.4	0.98405
636.6	0.98281
636.8	0.9802
637.0	0.97776
637.2	0.97922
637.4	0.98034
637.6	0.98348
637.8	0.98249
638.0	0.97942
638.2	0.97765
638.4	0.97722
638.6	0.97669
638.8	0.9759
639.0	0.97959
639.2	0.98
639.4	0.97949
639.6	0.98044
639.8	0.9794
640.0	0.97929
640.2	0.98374
640.4	0.98189
640.6	0.97862
640.8	0.97992
641.0	0.97978
641.2	0.9825
641.4	0.97992
641.6	0.97552
641.8	0.9768
642.0	0.97712
642.2	0.97927
642.4	0.97892
642.6	0.97925
642.8	0.97957
643.0	0.98217
643.2	0.98285
643.4	0.98062
643.6	0.97793
643.8	0.97652
644.0	0.97982
644.2	0.98169
644.4	0.9818
644.6	0.98134
644.8	0.98549
645.0	0.98683
645.2	0.98411
645.4	0.98451
645.6	0.98374
645.8	0.98076
646.0	0.98289
646.2	0.98489
646.4	0.9871
646.6	0.9855
646.8	0.98129
647.0	0.98258
647.2	0.98246
647.4	0.97801
647.6	0.9768
647.8	0.98342
648.0	0.98112
648.2	0.97657
648.4	0.9793
648.6	0.9774
648.8	0.97721
649.0	0.97948
649.2	0.97838
649.4	0.98166
649.6	0.98102
649.8	0.98016
650.0	0.97555
650.2	0.97407
650.4	0.97562
650.6	0.97675
650.8	0.97499
651.0	0.97443
651.2	0.97901
651.4	0.98029
651.6	0.97764
651.8	0.97847
652.0	0.98149
652.2	0.97868
652.4	0.98318
652.6	0.98576
652.8	0.98529
653.0	0.98124
653.2	0.97349
653.4	0.97875
653.6	0.98161
653.8	0.97752
654.0	0.98242
654.2	0.98374
654.4	0.98318
654.6	0.98337
654.8	0.98282
655.0	0.98052
655.2	0.98027
655.4	0.98413
655.6	0.98872
655.8	0.98712
656.0	0.98179
656.2	0.97988
656.4	0.98009
656.6	0.98186
656.8	0.9794
657.0	0.97801
657.2	0.9848
657.4	0.9896
657.6	0.98752
657.8	0.97806
658.0	0.98067
658.2	0.98255
658.4	0.9827
658.6	0.98368
658.8	0.97979
659.0	0.98508
659.2	0.98008
659.4	0.97851
659.6	0.98444
659.8	0.98025
660.0	0.97595
660.2	0.97823
660.4	0.98734
660.6	0.98256
660.8	0.97665
661.0	0.9776
661.2	0.98199
661.4	0.97641
661.6	0.9764
661.8	0.97844
662.0	0.9783
662.2	0.98074
662.4	0.97969
662.6	0.97938
662.8	0.97868
663.0	0.97323
663.2	0.97663
663.4	0.97725
663.6	0.97252
663.8	0.97969
664.0	0.97286
664.2	0.97681
664.4	0.97921
664.6	0.9796
664.8	0.97797
665.0	0.98092
665.2	0.9775
665.4	0.97881
665.6	0.97348
665.8	0.98095
666.0	0.9781
666.2	0.98279
666.4	0.98206
666.6	0.98237
666.8	0.97484
667.0	0.97944
667.2	0.97975
667.4	0.98293
667.6	0.98102
667.8	0.98562
668.0	0.98104
668.2	0.98441
668.4	0.98453
668.6	0.98466
668.8	0.984
669.0	0.98369
669.2	0.98172
669.4	0.98415
669.6	0.98317
669.8	0.98459
670.0	0.98751
670.2	0.98516
670.4	0.98789
670.6	0.98097
670.8	0.98358
671.0	0.98682
671.2	0.98949
671.4	0.98749
671.6	0.98704
671.8	0.98866
672.0	0.98086
672.2	0.97928
672.4	0.98923
672.6	0.98586
672.8	0.98783
673.0	0.9864
673.2	0.9774
673.4	0.97933
673.6	0.9849
673.8	0.98423
674.0	0.97822
674.2	0.98574
674.4	0.98119
674.6	0.97728
674.8	0.97433
675.0	0.98343
675.2	0.98325
675.4	0.97726
675.6	0.98317
675.8	0.98041
676.0	0.97405
676.2	0.97776
676.4	0.98044
676.6	0.97943
676.8	0.97584
677.0	0.98073
677.2	0.97856
677.4	0.97936
677.6	0.9779
677.8	0.98041
678.0	0.98346
678.2	0.98484
678.4	0.97792
678.6	0.98146
678.8	0.98041
679.0	0.97968
679.2	0.97431
679.4	0.97766
679.6	0.97998
679.8	0.98332
680.0	0.97788
680.2	0.98638
680.4	0.98476
680.6	0.98117
680.8	0.98507
681.0	0.98439
681.2	0.97893
681.4	0.98738
681.6	0.98883
681.8	0.97917
682.0	0.98401
682.2	0.98321
682.4	0.9814
682.6	0.98271
682.8	0.98107
683.0	0.98399
683.2	0.98161
683.4	0.98712
683.6	0.98656
683.8	0.98257
684.0	0.9886
684.2	0.984
684.4	0.98231
684.6	0.99242
684.8	0.98488
685.0	0.98831
685.2	0.98526
685.4	0.98542
685.6	0.98538
685.8	0.98872
686.0	0.98914
686.2	0.98662
686.4	0.98899
686.6	0.98878
686.8	0.98973
687.0	0.9841
687.2	0.98379
687.4	0.98491
687.6	0.98484
687.8	0.98387
688.0	0.98454
688.2	0.98528
688.4	0.98618
688.6	0.98412
688.8	0.98137
689.0	0.98147
689.2	0.98752
689.4	0.98172
689.6	0.98485
689.8	0.98371
690.0	0.9817
690.2	0.98023
690.4	0.9798
690.6	0.97934
690.8	0.98047
691.0	0.97987
691.2	0.97953
691.4	0.97972
691.6	0.97994
691.8	0.97949
692.0	0.97946
692.2	0.97886
692.4	0.9784
692.6	0.97835
692.8	0.97853
693.0	0.97889
693.2	0.97782
693.4	0.97781
693.6	0.97874
693.8	0.97906
694.0	0.97926
694.2	0.97907
694.4	0.97992
694.6	0.97954
694.8	0.97873
695.0	0.97846
695.2	0.97913
695.4	0.97963
695.6	0.98081
695.8	0.98072
696.0	0.98105
696.2	0.98111
696.4	0.98112
696.6	0.98084
696.8	0.98098
697.0	0.98106
697.2	0.98242
697.4	0.98234
697.6	0.9817
697.8	0.98163
698.0	0.98142
698.2	0.98132
698.4	0.98129
698.6	0.98233
698.8	0.98352
699.0	0.98488
699.2	0.98532
699.4	0.98256
699.6	0.98306
699.8	0.98389
700.0	0.98476
700.2	0.98474
700.4	0.98448
700.6	0.98392
700.8	0.98377
701.0	0.98155
701.2	0.98291
701.4	0.98458
701.6	0.98547
701.8	0.98249
702.0	0.98019
702.2	0.98197
702.4	0.98272
702.6	0.98274
702.8	0.9824
703.0	0.9814
703.2	0.98134
703.4	0.9824
703.6	0.98291
703.8	0.9836
704.0	0.98286
704.2	0.98109
704.4	0.98184
704.6	0.9828
704.8	0.98126
705.0	0.98425
705.2	0.98554
705.4	0.98123
705.6	0.9802
705.8	0.98329
706.0	0.9824
706.2	0.98216
706.4	0.98115
706.6	0.97929
706.8	0.98028
707.0	0.98014
707.2	0.98022
707.4	0.98138
707.6	0.98062
707.8	0.98026
708.0	0.98406
708.2	0.98203
708.4	0.97818
708.6	0.98268
708.8	0.98352
709.0	0.98198
709.2	0.98293
709.4	0.983
709.6	0.98224
709.8	0.98178
710.0	0.98259
710.2	0.98333
710.4	0.98363
710.6	0.98386
710.8	0.98373
711.0	0.98471
711.2	0.98566
711.4	0.98496
711.6	0.98523
711.8	0.98825
712.0	0.9888
712.2	0.98516
712.4	0.98604
712.6	0.98576
712.8	0.98439
713.0	0.98643
713.2	0.9867
713.4	0.98638
713.6	0.98585
713.8	0.98409
714.0	0.98584
714.2	0.98535
714.4	0.98476
714.6	0.98658
714.8	0.98497
715.0	0.98301
715.2	0.9827
715.4	0.98259
715.6	0.98451
715.8	0.98849
716.0	0.98624
716.2	0.98633
716.4	0.98862
716.6	0.98516
716.8	0.98325
717.0	0.98524
717.2	0.98593
717.4	0.98349
717.6	0.98547
717.8	0.98652
718.0	0.9846
718.2	0.98189
718.4	0.98071
718.6	0.98113
718.8	0.98185
719.0	0.98169
719.2	0.98015
719.4	0.98201
719.6	0.98289
719.8	0.98222
720.0	0.98257
720.2	0.98323
720.4	0.98329
720.6	0.98226
720.8	0.98207
721.0	0.98213
721.2	0.98069
721.4	0.98116
721.6	0.98173
721.8	0.97979
722.0	0.98153
722.2	0.9816
722.4	0.98197
722.6	0.97966
722.8	0.98073
723.0	0.97977
723.2	0.97997
723.4	0.97932
723.6	0.97956
723.8	0.9813
724.0	0.98054
724.2	0.97775
724.4	0.97841
724.6	0.9793
724.8	0.98011
725.0	0.98043
725.2	0.98217
725.4	0.98158
725.6	0.98114
725.8	0.98038
726.0	0.98123
726.2	0.98202
726.4	0.98126
726.6	0.98135
726.8	0.98425
727.0	0.98278
727.2	0.98123
727.4	0.98089
727.6	0.98155
727.8	0.98253
728.0	0.98404
728.2	0.98236
728.4	0.98291
728.6	0.9822
728.8	0.98081
729.0	0.98263
729.2	0.98318
729.4	0.98275
729.6	0.98267
729.8	0.98385
730.0	0.98176
730.2	0.98184
730.4	0.98297
730.6	0.9842
730.8	0.98363
731.0	0.98299
731.2	0.98143
731.4	0.98256
731.6	0.98203
731.8	0.98231
732.0	0.98256
732.2	0.98182
732.4	0.98209
732.6	0.98262
732.8	0.98268
733.0	0.98213
733.2	0.98322
733.4	0.98285
733.6	0.98261
733.8	0.98086
734.0	0.98107
734.2	0.97992
734.4	0.98094
734.6	0.98163
734.8	0.98362
735.0	0.98238
735.2	0.98263
735.4	0.98146
735.6	0.98048
735.8	0.98174
736.0	0.98206
736.2	0.97975
736.4	0.97995
736.6	0.98025
736.8	0.98006
737.0	0.98024
737.2	0.98099
737.4	0.9807
737.6	0.98181
737.8	0.98161
738.0	0.98088
738.2	0.9814
738.4	0.98206
738.6	0.98156
738.8	0.98115
739.0	0.9825
739.2	0.98123
739.4	0.98105
739.6	0.98128
739.8	0.98137
740.0	0.98148
740.2	0.98104
740.4	0.98113
740.6	0.98409
740.8	0.98244
741.0	0.98213
741.2	0.97907
741.4	0.98274
741.6	0.98128
741.8	0.98219
742.0	0.98111
742.2	0.98251
742.4	0.98222
742.6	0.98254
742.8	0.98267
743.0	0.98189
743.2	0.98253
743.4	0.98217
743.6	0.9826
743.8	0.98318
744.0	0.98405
744.2	0.98314
744.4	0.98215
744.6	0.98317
744.8	0.98259
745.0	0.98257
745.2	0.98247
745.4	0.98257
745.6	0.98317
745.8	0.98248
746.0	0.98308
746.2	0.98396
746.4	0.98538
746.6	0.98276
746.8	0.98282
747.0	0.98259
747.2	0.98366
747.4	0.98345
747.6	0.98364
747.8	0.98324
748.0	0.98265
748.2	0.98295
748.4	0.98216
748.6	0.98206
748.8	0.9828
749.0	0.9828
749.2	0.98252
749.4	0.9821
749.6	0.98403
749.8	0.98247
750.0	0.98206
750.2	0.98253
750.4	0.98235
750.6	0.98278
750.8	0.98151
751.0	0.98168
751.2	0.98124
751.4	0.98238
751.6	0.98301
751.8	0.98215
752.0	0.98145
752.2	0.98252
752.4	0.98259
752.6	0.98289
752.8	0.9828
753.0	0.98191
753.2	0.98122
753.4	0.98238
753.6	0.98229
753.8	0.98177
754.0	0.98141
754.2	0.98139
754.4	0.98171
754.6	0.98315
754.8	0.98227
755.0	0.98308
755.2	0.98227
755.4	0.98223
755.6	0.98241
755.8	0.9834
756.0	0.98351
756.2	0.98313
756.4	0.98339
756.6	0.98248
756.8	0.98297
757.0	0.98328
757.2	0.98292
757.4	0.98337
757.6	0.98359
757.8	0.9837
758.0	0.98397
758.2	0.98472
758.4	0.98378
758.6	0.98319
758.8	0.98368
759.0	0.9852
759.2	0.98532
759.4	0.98548
759.6	0.98395
759.8	0.98528
760.0	0.98519
760.2	0.98514
760.4	0.98407
760.6	0.98418
760.8	0.98447
761.0	0.98518
761.2	0.98452
761.4	0.98494
761.6	0.98588
761.8	0.98596
762.0	0.98517
762.2	0.98454
762.4	0.98466
762.6	0.98395
762.8	0.98459
763.0	0.98492
763.2	0.98553
763.4	0.98528
763.6	0.98562
763.8	0.98541
764.0	0.9846
764.2	0.98443
764.4	0.98529
764.6	0.98625
764.8	0.98585
765.0	0.9852
765.2	0.98499
765.4	0.98512
765.6	0.98497
765.8	0.98586
766.0	0.98456
766.2	0.98343
766.4	0.9839
766.6	0.98337
766.8	0.98355
767.0	0.98396
767.2	0.98294
767.4	0.98256
767.6	0.98335
767.8	0.98267
768.0	0.98368
768.2	0.98417
768.4	0.98346
768.6	0.98299
768.8	0.98337
769.0	0.98332
769.2	0.98234
769.4	0.9822
769.6	0.98202
769.8	0.98262
770.0	0.98273
770.2	0.98306
770.4	0.98267
770.6	0.9819
770.8	0.98191
771.0	0.98236
771.2	0.98336
771.4	0.98281
771.6	0.98157
771.8	0.98161
772.0	0.98238
772.2	0.98237
772.4	0.98202
772.6	0.98234
772.8	0.98336
773.0	0.98338
773.2	0.98201
773.4	0.98185
773.6	0.98257
773.8	0.9829
774.0	0.98347
774.2	0.98346
774.4	0.98314
774.6	0.98283
774.8	0.98238
775.0	0.98226
775.2	0.98242
775.4	0.98173
775.6	0.98167
775.8	0.98257
776.0	0.98296
776.2	0.98243
776.4	0.98218
776.6	0.98278
776.8	0.98274
777.0	0.98216
777.2	0.98235
777.4	0.98248
777.6	0.98352
777.8	0.98441
778.0	0.98357
778.2	0.98292
778.4	0.98319
778.6	0.98304
778.8	0.98251
779.0	0.98206
779.2	0.98179
779.4	0.98231
779.6	0.98283
779.8	0.98317
780.0	0.98228
780.2	0.98179
780.4	0.98234
780.6	0.9825
780.8	0.98175
781.0	0.98084
781.2	0.98099
781.4	0.98199
781.6	0.98227
781.8	0.98142
782.0	0.98191
782.2	0.98235
782.4	0.98144
782.6	0.98029
782.8	0.9807
783.0	0.98176
783.2	0.98167
783.4	0.98094
783.6	0.98015
783.8	0.97998
784.0	0.98032
784.2	0.98096
784.4	0.98156
784.6	0.98155
784.8	0.98106
785.0	0.98117
785.2	0.98089
785.4	0.9805
785.6	0.98089
785.8	0.98025
786.0	0.98007
786.2	0.97968
786.4	0.97961
786.6	0.9801
786.8	0.97984
787.0	0.98017
787.2	0.98071
787.4	0.97985
787.6	0.98045
787.8	0.98142
788.0	0.98037
788.2	0.98042
788.4	0.98049
788.6	0.98201
788.8	0.98088
789.0	0.98101
789.2	0.98127
789.4	0.98173
789.6	0.98188
789.8	0.98129
790.0	0.98126
790.2	0.98111
790.4	0.98143
790.6	0.98221
790.8	0.98139
791.0	0.98202
791.2	0.98247
791.4	0.98178
791.6	0.98147
791.8	0.98035
792.0	0.98075
792.2	0.98103
792.4	0.98136
792.6	0.98226
792.8	0.98213
793.0	0.98256
793.2	0.98242
793.4	0.98125
793.6	0.98114
793.8	0.9821
794.0	0.98209
794.2	0.98143
794.4	0.98171
794.6	0.9819
794.8	0.98065
795.0	0.9806
795.2	0.97957
795.4	0.97968
795.6	0.98076
795.8	0.98084
796.0	0.98057
796.2	0.98076
796.4	0.98028
796.6	0.98092
796.8	0.97936
797.0	0.97889
797.2	0.98012
797.4	0.98151
797.6	0.98103
797.8	0.98042
798.0	0.97944
798.2	0.98028
798.4	0.97966
798.6	0.97932
798.8	0.97881
799.0	0.97931
799.2	0.97943
799.4	0.97921
799.6	0.97976
799.8	0.97837
800.0	0.97914
800.2	0.97912
800.4	0.9778
800.6	0.97897
800.8	0.97828
801.0	0.97865
801.2	0.97798
801.4	0.97816
801.6	0.97809
801.8	0.97688
802.0	0.97617
802.2	0.97749
802.4	0.97754
802.6	0.97843
802.8	0.97894
803.0	0.9796
803.2	0.97831
803.4	0.97978
803.6	0.97859
803.8	0.97771
804.0	0.97988
804.2	0.98021
804.4	0.98031
804.6	0.98029
804.8	0.97987
805.0	0.98117
805.2	0.98134
805.4	0.98139
805.6	0.9807
805.8	0.98087
806.0	0.98205
806.2	0.98276
806.4	0.98183
806.6	0.98264
806.8	0.98282
807.0	0.98295
807.2	0.9825
807.4	0.98333
807.6	0.98239
807.8	0.98446
808.0	0.98325
808.2	0.98327
808.4	0.98453
808.6	0.9845
808.8	0.98226
809.0	0.98202
809.2	0.98278
809.4	0.9818
809.6	0.98187
809.8	0.97984
810.0	0.97883
