Typical Measured Spectrum of Semrock FF555-Di03 Optical Filter	
For wavelengths between 320 and 1120 nm, values near or below 3e-7 (Optical Density 6.5) are measurement noise limited.
For wavelengths < 320 nm and > 1120 nm, values near or below 3e-6 (Optical Density 5.5) are measurement noise limited. 
Data format:  Wavelength (nm) <tab> Transmission (0 to 1)
340.0	2.1975e-04
340.2	1.7248e-04
340.4	1.8578e-04
340.6	2.2966e-04
340.8	2.4037e-04
341.0	2.0498e-04
341.2	2.6169e-04
341.4	2.717e-04
341.6	3.1149e-04
341.8	4.1637e-04
342.0	6.4222e-04
342.2	0.00109
342.4	0.00169
342.6	0.00254
342.8	0.00329
343.0	0.00391
343.2	0.00425
343.4	0.00457
343.6	0.00456
343.8	0.00437
344.0	0.00389
344.2	0.00378
344.4	0.0045
344.6	0.00656
344.8	0.01162
345.0	0.02168
345.2	0.03551
345.4	0.04999
345.6	0.06327
345.8	0.07393
346.0	0.0789
346.2	0.0787
346.4	0.07328
346.6	0.06354
346.8	0.05122
347.0	0.03892
347.2	0.03221
347.4	0.02881
347.6	0.0271
347.8	0.02439
348.0	0.02205
348.2	0.01886
348.4	0.01637
348.6	0.01389
348.8	0.01203
349.0	0.01065
349.2	0.00985
349.4	0.01021
349.6	0.01083
349.8	0.012
350.0	0.0132
350.2	0.01411
350.4	0.01483
350.6	0.01547
350.8	0.01558
351.0	0.01503
351.2	0.01473
351.4	0.01366
351.6	0.01258
351.8	0.01174
352.0	0.0113
352.2	0.01156
352.4	0.01229
352.6	0.01353
352.8	0.01469
353.0	0.01608
353.2	0.01817
353.4	0.0185
353.6	0.01935
353.8	0.01881
354.0	0.01814
354.2	0.01648
354.4	0.01484
354.6	0.01337
354.8	0.01231
355.0	0.01187
355.2	0.01204
355.4	0.01285
355.6	0.01448
355.8	0.01645
356.0	0.01833
356.2	0.02018
356.4	0.0216
356.6	0.02159
356.8	0.02104
357.0	0.01988
357.2	0.0177
357.4	0.0154
357.6	0.01391
357.8	0.01272
358.0	0.01205
358.2	0.0123
358.4	0.01352
358.6	0.01487
358.8	0.01707
359.0	0.01867
359.2	0.02046
359.4	0.02129
359.6	0.02181
359.8	0.02089
360.0	0.01941
360.2	0.01755
360.4	0.01529
360.6	0.01306
360.8	0.01165
361.0	0.01086
361.2	0.01054
361.4	0.01064
361.6	0.01125
361.8	0.0121
362.0	0.0125
362.2	0.01295
362.4	0.01294
362.6	0.01252
362.8	0.01198
363.0	0.01062
363.2	0.0093
363.4	0.00792
363.6	0.00643
363.8	0.00569
364.0	0.00496
364.2	0.00443
364.4	0.00406
364.6	0.00434
364.8	0.00448
365.0	0.00484
365.2	0.00504
365.4	0.006
365.6	0.00621
365.8	0.00668
366.0	0.00646
366.2	0.00662
366.4	0.00644
366.6	0.0061
366.8	0.00549
367.0	0.00477
367.2	0.00433
367.4	0.00371
367.6	0.0034
367.8	0.00352
368.0	0.00361
368.2	0.00337
368.4	0.00407
368.6	0.00439
368.8	0.00578
369.0	0.00596
369.2	0.00715
369.4	0.00819
369.6	0.00863
369.8	0.00937
370.0	0.00927
370.2	0.00934
370.4	0.00848
370.6	0.00784
370.8	0.00682
371.0	0.0067
371.2	0.00601
371.4	0.00561
371.6	0.00583
371.8	0.00557
372.0	0.00654
372.2	0.00766
372.4	0.00908
372.6	0.01003
372.8	0.0108
373.0	0.01164
373.2	0.01199
373.4	0.0119
373.6	0.01108
373.8	0.01059
374.0	0.00906
374.2	0.00841
374.4	0.00678
374.6	0.0064
374.8	0.00517
375.0	0.00486
375.2	0.00448
375.4	0.00488
375.6	0.00511
375.8	0.00559
376.0	0.00604
376.2	0.0064
376.4	0.00686
376.6	0.00723
376.8	0.00694
377.0	0.00722
377.2	0.00714
377.4	0.00638
377.6	0.00617
377.8	0.00535
378.0	0.00495
378.2	0.00428
378.4	0.00391
378.6	0.00387
378.8	0.00359
379.0	0.00376
379.2	0.00379
379.4	0.00415
379.6	0.00455
379.8	0.00542
380.0	0.00622
380.2	0.0068
380.4	0.00744
380.6	0.00826
380.8	0.00857
381.0	0.0086
381.2	0.00814
381.4	0.00763
381.6	0.00698
381.8	0.00642
382.0	0.00595
382.2	0.00502
382.4	0.00488
382.6	0.00468
382.8	0.00475
383.0	0.00467
383.2	0.00534
383.4	0.00579
383.6	0.00614
383.8	0.00682
384.0	0.00689
384.2	0.0077
384.4	0.0074
384.6	0.00754
384.8	0.00722
385.0	0.00611
385.2	0.00557
385.4	0.0047
385.6	0.00414
385.8	0.00347
386.0	0.00297
386.2	0.00245
386.4	0.00275
386.6	0.00242
386.8	0.00247
387.0	0.00226
387.2	0.00241
387.4	0.00268
387.6	0.00289
387.8	0.00348
388.0	0.00344
388.2	0.00407
388.4	0.00421
388.6	0.00468
388.8	0.00478
389.0	0.00483
389.2	0.00448
389.4	0.00457
389.6	0.00391
389.8	0.00367
390.0	0.00315
390.2	0.00307
390.4	0.00297
390.6	0.0028
390.8	0.00295
391.0	0.00285
391.2	0.00308
391.4	0.00332
391.6	0.00362
391.8	0.00357
392.0	0.0044
392.2	0.00434
392.4	0.00473
392.6	0.00514
392.8	0.00583
393.0	0.00652
393.2	0.00791
393.4	0.0084
393.6	0.00923
393.8	0.01003
394.0	0.01039
394.2	0.01055
394.4	0.01046
394.6	0.01031
394.8	0.00948
395.0	0.00903
395.2	0.00895
395.4	0.00898
395.6	0.00913
395.8	0.00945
396.0	0.0102
396.2	0.01175
396.4	0.01362
396.6	0.01525
396.8	0.01712
397.0	0.01841
397.2	0.01924
397.4	0.01939
397.6	0.01898
397.8	0.01769
398.0	0.016
398.2	0.01372
398.4	0.01172
398.6	0.00976
398.8	0.00804
399.0	0.007
399.2	0.00607
399.4	0.00549
399.6	0.0049
399.8	0.00528
400.0	0.0052
400.2	0.00586
400.4	0.00617
400.6	0.00687
400.8	0.00738
401.0	0.00802
401.2	0.00857
401.4	0.00899
401.6	0.00947
401.8	0.00933
402.0	0.00928
402.2	0.00848
402.4	0.0082
402.6	0.00753
402.8	0.00662
403.0	0.00591
403.2	0.00526
403.4	0.00473
403.6	0.00425
403.8	0.00433
404.0	0.00406
404.2	0.00405
404.4	0.0041
404.6	0.00434
404.8	0.00488
405.0	0.00556
405.2	0.00671
405.4	0.00793
405.6	0.00969
405.8	0.0116
406.0	0.01382
406.2	0.01536
406.4	0.01673
406.6	0.01747
406.8	0.01781
407.0	0.01699
407.2	0.01598
407.4	0.01418
407.6	0.01256
407.8	0.01024
408.0	0.00835
408.2	0.00673
408.4	0.00539
408.6	0.00474
408.8	0.00427
409.0	0.00389
409.2	0.00356
409.4	0.00361
409.6	0.00364
409.8	0.00368
410.0	0.00389
410.2	0.00414
410.4	0.00437
410.6	0.00468
410.8	0.00547
411.0	0.00609
411.2	0.00709
411.4	0.00811
411.6	0.00929
411.8	0.01063
412.0	0.01207
412.2	0.01381
412.4	0.01545
412.6	0.01682
412.8	0.01791
413.0	0.01874
413.2	0.01951
413.4	0.01982
413.6	0.0197
413.8	0.01996
414.0	0.01947
414.2	0.01952
414.4	0.0194
414.6	0.01924
414.8	0.01944
415.0	0.01924
415.2	0.01943
415.4	0.01947
415.6	0.01936
415.8	0.01923
416.0	0.01911
416.2	0.01865
416.4	0.01815
416.6	0.01732
416.8	0.01677
417.0	0.01605
417.2	0.01544
417.4	0.01492
417.6	0.01466
417.8	0.01402
418.0	0.01381
418.2	0.01373
418.4	0.01379
418.6	0.01403
418.8	0.01442
419.0	0.01489
419.2	0.01565
419.4	0.01644
419.6	0.01715
419.8	0.01801
420.0	0.01878
420.2	0.01956
420.4	0.01992
420.6	0.02034
420.8	0.02042
421.0	0.02025
421.2	0.01987
421.4	0.01943
421.6	0.01858
421.8	0.01765
422.0	0.01675
422.2	0.01604
422.4	0.01509
422.6	0.01456
422.8	0.01411
423.0	0.01375
423.2	0.01357
423.4	0.0135
423.6	0.01364
423.8	0.01359
424.0	0.01363
424.2	0.01414
424.4	0.01441
424.6	0.01505
424.8	0.01534
425.0	0.01572
425.2	0.0161
425.4	0.01622
425.6	0.0162
425.8	0.01636
426.0	0.01612
426.2	0.01594
426.4	0.01535
426.6	0.01503
426.8	0.01432
427.0	0.01385
427.2	0.01329
427.4	0.01289
427.6	0.0123
427.8	0.01216
428.0	0.01174
428.2	0.0118
428.4	0.0117
428.6	0.01163
428.8	0.01196
429.0	0.01201
429.2	0.0124
429.4	0.0126
429.6	0.01311
429.8	0.01356
430.0	0.01408
430.2	0.01474
430.4	0.0151
430.6	0.01586
430.8	0.01647
431.0	0.01662
431.2	0.01692
431.4	0.01709
431.6	0.0172
431.8	0.01721
432.0	0.01703
432.2	0.01679
432.4	0.01638
432.6	0.01623
432.8	0.01575
433.0	0.01515
433.2	0.01501
433.4	0.01456
433.6	0.01438
433.8	0.01416
434.0	0.01402
434.2	0.01403
434.4	0.01409
434.6	0.01404
434.8	0.01422
435.0	0.0145
435.2	0.01499
435.4	0.01534
435.6	0.0159
435.8	0.01638
436.0	0.017
436.2	0.01763
436.4	0.01832
436.6	0.01885
436.8	0.01922
437.0	0.01969
437.2	0.02
437.4	0.02025
437.6	0.02021
437.8	0.01994
438.0	0.01986
438.2	0.01942
438.4	0.01911
438.6	0.01853
438.8	0.01786
439.0	0.01719
439.2	0.01649
439.4	0.01581
439.6	0.01512
439.8	0.01457
440.0	0.01395
440.2	0.01362
440.4	0.01335
440.6	0.01299
440.8	0.01298
441.0	0.0127
441.2	0.01265
441.4	0.01279
441.6	0.01296
441.8	0.01318
442.0	0.0132
442.2	0.01353
442.4	0.01394
442.6	0.01418
442.8	0.01455
443.0	0.01493
443.2	0.01515
443.4	0.01541
443.6	0.01544
443.8	0.01565
444.0	0.01548
444.2	0.01538
444.4	0.0151
444.6	0.01472
444.8	0.01421
445.0	0.01376
445.2	0.01339
445.4	0.01285
445.6	0.01229
445.8	0.0118
446.0	0.0114
446.2	0.01098
446.4	0.01049
446.6	0.0103
446.8	0.01022
447.0	0.00999
447.2	0.01013
447.4	0.00997
447.6	0.01021
447.8	0.01014
448.0	0.01056
448.2	0.0109
448.4	0.01105
448.6	0.01144
448.8	0.01169
449.0	0.01213
449.2	0.01243
449.4	0.01272
449.6	0.0127
449.8	0.01274
450.0	0.01279
450.2	0.01282
450.4	0.01248
450.6	0.01229
450.8	0.01193
451.0	0.01158
451.2	0.01127
451.4	0.01075
451.6	0.01027
451.8	0.00989
452.0	0.00964
452.2	0.0089
452.4	0.00878
452.6	0.00839
452.8	0.00814
453.0	0.00799
453.2	0.00785
453.4	0.00772
453.6	0.00766
453.8	0.00769
454.0	0.00767
454.2	0.00769
454.4	0.00786
454.6	0.00792
454.8	0.00803
455.0	0.00817
455.2	0.00833
455.4	0.0084
455.6	0.00844
455.8	0.00855
456.0	0.00843
456.2	0.00841
456.4	0.00833
456.6	0.00814
456.8	0.00801
457.0	0.00781
457.2	0.00758
457.4	0.00735
457.6	0.00699
457.8	0.00684
458.0	0.00643
458.2	0.0062
458.4	0.00581
458.6	0.0055
458.8	0.0054
459.0	0.00508
459.2	0.00499
459.4	0.00484
459.6	0.00472
459.8	0.00455
460.0	0.00459
460.2	0.00452
460.4	0.00452
460.6	0.00457
460.8	0.00472
461.0	0.00478
461.2	0.00482
461.4	0.00494
461.6	0.00514
461.8	0.00531
462.0	0.0055
462.2	0.00573
462.4	0.00583
462.6	0.00608
462.8	0.00635
463.0	0.00641
463.2	0.0066
463.4	0.00654
463.6	0.00662
463.8	0.00661
464.0	0.00665
464.2	0.00651
464.4	0.00632
464.6	0.00626
464.8	0.00598
465.0	0.00576
465.2	0.00547
465.4	0.00521
465.6	0.00516
465.8	0.00477
466.0	0.00459
466.2	0.0044
466.4	0.00416
466.6	0.00405
466.8	0.00391
467.0	0.00381
467.2	0.00371
467.4	0.00362
467.6	0.00359
467.8	0.00354
468.0	0.0036
468.2	0.00357
468.4	0.00378
468.6	0.00386
468.8	0.0039
469.0	0.00402
469.2	0.00422
469.4	0.0045
469.6	0.00472
469.8	0.00492
470.0	0.00518
470.2	0.00554
470.4	0.00587
470.6	0.00616
470.8	0.00645
471.0	0.00674
471.2	0.00702
471.4	0.00723
471.6	0.00747
471.8	0.00753
472.0	0.00758
472.2	0.00758
472.4	0.00758
472.6	0.00753
472.8	0.00729
473.0	0.00724
473.2	0.00703
473.4	0.00684
473.6	0.00654
473.8	0.00631
474.0	0.00611
474.2	0.00595
474.4	0.00571
474.6	0.00558
474.8	0.00543
475.0	0.00522
475.2	0.00524
475.4	0.00522
475.6	0.00534
475.8	0.0054
476.0	0.00567
476.2	0.0059
476.4	0.0063
476.6	0.00676
476.8	0.00738
477.0	0.00786
477.2	0.00864
477.4	0.00953
477.6	0.01033
477.8	0.01128
478.0	0.01234
478.2	0.01339
478.4	0.01442
478.6	0.01534
478.8	0.01644
479.0	0.01744
479.2	0.01826
479.4	0.01922
479.6	0.0199
479.8	0.02032
480.0	0.02071
480.2	0.02113
480.4	0.02112
480.6	0.02126
480.8	0.0211
481.0	0.02102
481.2	0.02058
481.4	0.02019
481.6	0.0198
481.8	0.01942
482.0	0.01901
482.2	0.01873
482.4	0.01827
482.6	0.01824
482.8	0.01803
483.0	0.01803
483.2	0.01813
483.4	0.01853
483.6	0.01904
483.8	0.01951
484.0	0.02024
484.2	0.021
484.4	0.02186
484.6	0.0226
484.8	0.02314
485.0	0.02353
485.2	0.02377
485.4	0.02346
485.6	0.02297
485.8	0.02208
486.0	0.02098
486.2	0.01963
486.4	0.01782
486.6	0.01621
486.8	0.01451
487.0	0.01281
487.2	0.01113
487.4	0.00967
487.6	0.00842
487.8	0.00742
488.0	0.00653
488.2	0.00582
488.4	0.00532
488.6	0.00487
488.8	0.0045
489.0	0.00424
489.2	0.00396
489.4	0.00383
489.6	0.00379
489.8	0.00365
490.0	0.00363
490.2	0.00359
490.4	0.00365
490.6	0.00376
490.8	0.00378
491.0	0.0039
491.2	0.00406
491.4	0.00414
491.6	0.00425
491.8	0.00449
492.0	0.00462
492.2	0.00483
492.4	0.00493
492.6	0.0051
492.8	0.00514
493.0	0.00522
493.2	0.00517
493.4	0.00505
493.6	0.00494
493.8	0.00467
494.0	0.00457
494.2	0.00426
494.4	0.00391
494.6	0.0036
494.8	0.0033
495.0	0.00295
495.2	0.00266
495.4	0.00239
495.6	0.00212
495.8	0.00194
496.0	0.00173
496.2	0.00157
496.4	0.00145
496.6	0.00137
496.8	0.00132
497.0	0.0012
497.2	0.00116
497.4	0.00112
497.6	0.00102
497.8	0.00101
498.0	0.00103
498.2	0.00104
498.4	0.00103
498.6	0.00104
498.8	9.7966e-04
499.0	0.00102
499.2	0.00105
499.4	0.00108
499.6	0.00112
499.8	0.00116
500.0	0.00113
500.2	0.00118
500.4	0.00126
500.6	0.00137
500.8	0.00146
501.0	0.00159
501.2	0.00179
501.4	0.00194
501.6	0.00222
501.8	0.00239
502.0	0.0027
502.2	0.00285
502.4	0.00307
502.6	0.00324
502.8	0.00345
503.0	0.00352
503.2	0.00351
503.4	0.00352
503.6	0.00344
503.8	0.00337
504.0	0.00317
504.2	0.00304
504.4	0.00281
504.6	0.00263
504.8	0.00233
505.0	0.00208
505.2	0.00195
505.4	0.00171
505.6	0.00151
505.8	0.00134
506.0	0.00129
506.2	0.00112
506.4	0.0011
506.6	9.8499e-04
506.8	9.1871e-04
507.0	9.1368e-04
507.2	8.4774e-04
507.4	9.0941e-04
507.6	8.4701e-04
507.8	8.8056e-04
508.0	8.0901e-04
508.2	8.4994e-04
508.4	8.4536e-04
508.6	8.8979e-04
508.8	8.5201e-04
509.0	9.6268e-04
509.2	9.4079e-04
509.4	9.8009e-04
509.6	0.00114
509.8	0.00114
510.0	0.00129
510.2	0.00145
510.4	0.00168
510.6	0.00192
510.8	0.0023
511.0	0.0028
511.2	0.00345
511.4	0.00426
511.6	0.00516
511.8	0.0062
512.0	0.0072
512.2	0.00826
512.4	0.00914
512.6	0.00995
512.8	0.01055
513.0	0.01088
513.2	0.01094
513.4	0.01089
513.6	0.01055
513.8	0.00996
514.0	0.00913
514.2	0.00808
514.4	0.00706
514.6	0.00597
514.8	0.00491
515.0	0.00392
515.2	0.00311
515.4	0.00246
515.6	0.00198
515.8	0.00169
516.0	0.00142
516.2	0.00128
516.4	0.0011
516.6	9.761e-04
516.8	8.8872e-04
517.0	8.3162e-04
517.2	7.672e-04
517.4	7.4663e-04
517.6	7.1583e-04
517.8	6.4207e-04
518.0	6.1956e-04
518.2	5.5416e-04
518.4	6.033e-04
518.6	5.3423e-04
518.8	5.0516e-04
519.0	5.0223e-04
519.2	4.904e-04
519.4	4.854e-04
519.6	4.7415e-04
519.8	5.1133e-04
520.0	4.8311e-04
520.2	4.8548e-04
520.4	4.6533e-04
520.6	4.9964e-04
520.8	4.95e-04
521.0	5.0438e-04
521.2	4.6649e-04
521.4	4.9124e-04
521.6	5.0759e-04
521.8	5.2747e-04
522.0	5.4503e-04
522.2	4.9857e-04
522.4	5.2903e-04
522.6	5.7329e-04
522.8	5.5764e-04
523.0	5.5581e-04
523.2	5.8056e-04
523.4	5.7552e-04
523.6	5.9814e-04
523.8	6.094e-04
524.0	6.7302e-04
524.2	7.001e-04
524.4	6.8125e-04
524.6	7.4231e-04
524.8	7.2717e-04
525.0	7.5047e-04
525.2	7.6772e-04
525.4	8.5268e-04
525.6	8.3649e-04
525.8	8.5348e-04
526.0	8.9753e-04
526.2	9.3914e-04
526.4	9.7528e-04
526.6	9.9968e-04
526.8	0.00112
527.0	0.00112
527.2	0.00117
527.4	0.00123
527.6	0.00134
527.8	0.00142
528.0	0.00148
528.2	0.00162
528.4	0.00172
528.6	0.00184
528.8	0.00196
529.0	0.00212
529.2	0.00226
529.4	0.00247
529.6	0.00262
529.8	0.00286
530.0	0.00311
530.2	0.0033
530.4	0.00353
530.6	0.00376
530.8	0.00403
531.0	0.00426
531.2	0.00449
531.4	0.00466
531.6	0.00491
531.8	0.00507
532.0	0.00523
532.2	0.00533
532.4	0.00541
532.6	0.00544
532.8	0.00538
533.0	0.00545
533.2	0.00528
533.4	0.00524
533.6	0.00511
533.8	0.00492
534.0	0.00481
534.2	0.00459
534.4	0.00443
534.6	0.00424
534.8	0.00413
535.0	0.00397
535.2	0.00386
535.4	0.00373
535.6	0.00368
535.8	0.00364
536.0	0.00357
536.2	0.00354
536.4	0.00348
536.6	0.00346
536.8	0.00342
537.0	0.0034
537.2	0.00333
537.4	0.00329
537.6	0.00319
537.8	0.00311
538.0	0.003
538.2	0.00296
538.4	0.00284
538.6	0.00274
538.8	0.00268
539.0	0.00258
539.2	0.00258
539.4	0.00255
539.6	0.00256
539.8	0.00261
540.0	0.00263
540.2	0.00267
540.4	0.00268
540.6	0.00277
540.8	0.00278
541.0	0.00289
541.2	0.00295
541.4	0.00301
541.6	0.00309
541.8	0.00317
542.0	0.00328
542.2	0.00336
542.4	0.00349
542.6	0.00364
542.8	0.0038
543.0	0.00487
543.2	0.00597
543.4	0.00613
543.6	0.00631
543.8	0.00653
544.0	0.00675
544.2	0.00697
544.4	0.00728
544.6	0.00763
544.8	0.00794
545.0	0.00835
545.2	0.00876
545.4	0.0092
545.6	0.00972
545.8	0.01027
546.0	0.01081
546.2	0.01146
546.4	0.0122
546.6	0.01308
546.8	0.01393
547.0	0.01494
547.2	0.01605
547.4	0.0173
547.6	0.01874
547.8	0.02042
548.0	0.02208
548.2	0.02443
548.4	0.02639
548.6	0.02902
548.8	0.03183
549.0	0.03521
549.2	0.03903
549.4	0.04328
549.6	0.04833
549.8	0.05358
550.0	0.05991
550.2	0.06718
550.4	0.07594
550.6	0.08478
550.8	0.09496
551.0	0.1067
551.2	0.11899
551.4	0.13315
551.6	0.14866
551.8	0.16538
552.0	0.18288
552.2	0.20151
552.4	0.2217
552.6	0.24232
552.8	0.26386
553.0	0.28451
553.2	0.30531
553.4	0.3249
553.6	0.34474
553.8	0.36261
554.0	0.37951
554.2	0.39552
554.4	0.41045
554.6	0.42316
554.8	0.4333
555.0	0.4432
555.2	0.45141
555.4	0.45905
555.6	0.46425
555.8	0.468
556.0	0.47197
556.2	0.47389
556.4	0.47817
556.6	0.48181
556.8	0.48692
557.0	0.49205
557.2	0.49723
557.4	0.50472
557.6	0.51398
557.8	0.52441
558.0	0.53656
558.2	0.55218
558.4	0.57061
558.6	0.5895
558.8	0.61152
559.0	0.63465
559.2	0.65874
559.4	0.68465
559.6	0.71146
559.8	0.74054
560.0	0.76898
560.2	0.79395
560.4	0.81929
560.6	0.84352
560.8	0.86754
561.0	0.88483
561.2	0.90427
561.4	0.92082
561.6	0.9339
561.8	0.94529
562.0	0.95425
562.2	0.96031
562.4	0.96416
562.6	0.97463
562.8	0.97879
563.0	0.97806
563.2	0.97856
563.4	0.97856
563.6	0.98076
563.8	0.98097
564.0	0.97784
564.2	0.97854
564.4	0.97956
564.6	0.97672
564.8	0.97671
565.0	0.97665
565.2	0.97604
565.4	0.97519
565.6	0.97459
565.8	0.97166
566.0	0.97036
566.2	0.97056
566.4	0.97393
566.6	0.97422
566.8	0.97318
567.0	0.97372
567.2	0.97273
567.4	0.97086
567.6	0.97219
567.8	0.97024
568.0	0.97148
568.2	0.96989
568.4	0.96989
568.6	0.97194
568.8	0.97333
569.0	0.97438
569.2	0.97564
569.4	0.97678
569.6	0.97796
569.8	0.97414
570.0	0.9754
570.2	0.97679
570.4	0.97938
570.6	0.97866
570.8	0.97574
571.0	0.97394
571.2	0.97714
571.4	0.98063
571.6	0.98032
571.8	0.97964
572.0	0.97934
572.2	0.97923
572.4	0.97861
572.6	0.97882
572.8	0.97743
573.0	0.97572
573.2	0.97836
573.4	0.97667
573.6	0.97898
573.8	0.98093
574.0	0.98045
574.2	0.98032
574.4	0.97962
574.6	0.97669
574.8	0.97694
575.0	0.97731
575.2	0.97602
575.4	0.97295
575.6	0.97587
575.8	0.977
576.0	0.97771
576.2	0.97508
576.4	0.97548
576.6	0.97319
576.8	0.97002
577.0	0.97085
577.2	0.97416
577.4	0.97375
577.6	0.97246
577.8	0.97119
578.0	0.96997
578.2	0.96964
578.4	0.97052
578.6	0.97076
578.8	0.96715
579.0	0.96915
579.2	0.9677
579.4	0.96566
579.6	0.96384
579.8	0.96656
580.0	0.96721
580.2	0.96871
580.4	0.96811
580.6	0.96952
580.8	0.97044
581.0	0.96971
581.2	0.96652
581.4	0.96706
581.6	0.96756
581.8	0.96701
582.0	0.96552
582.2	0.96753
582.4	0.96813
582.6	0.96815
582.8	0.96734
583.0	0.96719
583.2	0.96636
583.4	0.96736
583.6	0.9682
583.8	0.96899
584.0	0.97063
584.2	0.97276
584.4	0.9715
584.6	0.9712
584.8	0.96912
585.0	0.96824
585.2	0.97082
585.4	0.97103
585.6	0.9721
585.8	0.9744
586.0	0.97687
586.2	0.97633
586.4	0.97652
586.6	0.97731
586.8	0.97929
587.0	0.97775
587.2	0.97567
587.4	0.97624
587.6	0.97905
587.8	0.97873
588.0	0.9768
588.2	0.97776
588.4	0.97774
588.6	0.98212
588.8	0.97822
589.0	0.97989
589.2	0.97949
589.4	0.97839
589.6	0.977
589.8	0.97504
590.0	0.97616
590.2	0.97894
590.4	0.98047
590.6	0.98105
590.8	0.97905
591.0	0.9785
591.2	0.97872
591.4	0.97412
591.6	0.97111
591.8	0.97425
592.0	0.97479
592.2	0.97544
592.4	0.97592
592.6	0.97546
592.8	0.97967
593.0	0.97675
593.2	0.97577
593.4	0.97761
593.6	0.9776
593.8	0.97758
594.0	0.97915
594.2	0.97969
594.4	0.97735
594.6	0.97605
594.8	0.97737
595.0	0.97591
595.2	0.97528
595.4	0.97667
595.6	0.97782
595.8	0.9767
596.0	0.97613
596.2	0.97295
596.4	0.97218
596.6	0.97401
596.8	0.97526
597.0	0.97684
597.2	0.9794
597.4	0.97796
597.6	0.97661
597.8	0.9741
598.0	0.9724
598.2	0.97324
598.4	0.97322
598.6	0.97322
598.8	0.97328
599.0	0.97557
599.2	0.97616
599.4	0.97547
599.6	0.97687
599.8	0.97451
600.0	0.97634
600.2	0.97833
600.4	0.97765
600.6	0.97459
600.8	0.97427
601.0	0.97403
601.2	0.97824
601.4	0.98021
601.6	0.97817
601.8	0.98099
602.0	0.9793
602.2	0.9794
602.4	0.97806
602.6	0.97715
602.8	0.98129
603.0	0.97914
603.2	0.97909
603.4	0.98093
603.6	0.98014
603.8	0.98076
604.0	0.98339
604.2	0.98172
604.4	0.97919
604.6	0.97939
604.8	0.9784
605.0	0.97855
605.2	0.976
605.4	0.97712
605.6	0.97898
605.8	0.97429
606.0	0.97549
606.2	0.9754
606.4	0.97616
606.6	0.97597
606.8	0.9751
607.0	0.97081
607.2	0.97209
607.4	0.97227
607.6	0.97287
607.8	0.97099
608.0	0.97026
608.2	0.96879
608.4	0.96823
608.6	0.96852
608.8	0.97213
609.0	0.97117
609.2	0.96834
609.4	0.96713
609.6	0.96833
609.8	0.96688
610.0	0.96703
610.2	0.97163
610.4	0.97271
610.6	0.97084
610.8	0.96677
611.0	0.96942
611.2	0.9702
611.4	0.97278
611.6	0.96981
611.8	0.96944
612.0	0.97067
612.2	0.96786
612.4	0.96934
612.6	0.97244
612.8	0.97091
613.0	0.96816
613.2	0.97049
613.4	0.97411
613.6	0.97197
613.8	0.97037
614.0	0.96833
614.2	0.96825
614.4	0.96934
614.6	0.96948
614.8	0.97087
615.0	0.97453
615.2	0.97382
615.4	0.97467
615.6	0.97404
615.8	0.97251
616.0	0.97103
616.2	0.97213
616.4	0.97283
616.6	0.9734
616.8	0.96986
617.0	0.97031
617.2	0.97439
617.4	0.97283
617.6	0.97144
617.8	0.97496
618.0	0.97618
618.2	0.97554
618.4	0.97402
618.6	0.9744
618.8	0.97551
619.0	0.9747
619.2	0.97424
619.4	0.97517
619.6	0.97808
619.8	0.97618
620.0	0.97607
620.2	0.97629
620.4	0.97667
620.6	0.97701
620.8	0.97784
621.0	0.97451
621.2	0.97547
621.4	0.97397
621.6	0.9763
621.8	0.97605
622.0	0.9742
622.2	0.97214
622.4	0.97311
622.6	0.97493
622.8	0.97581
623.0	0.97419
623.2	0.97095
623.4	0.9714
623.6	0.97263
623.8	0.97265
624.0	0.97284
624.2	0.97388
624.4	0.97467
624.6	0.97172
624.8	0.97094
625.0	0.97119
625.2	0.96966
625.4	0.96977
625.6	0.97102
625.8	0.97077
626.0	0.96907
626.2	0.96918
626.4	0.96769
626.6	0.96953
626.8	0.9687
627.0	0.96836
627.2	0.96872
627.4	0.96752
627.6	0.96743
627.8	0.96781
628.0	0.96743
628.2	0.96607
628.4	0.96608
628.6	0.96704
628.8	0.96964
629.0	0.97037
629.2	0.9666
629.4	0.96581
629.6	0.96549
629.8	0.96563
630.0	0.96608
630.2	0.96923
630.4	0.96604
630.6	0.9705
630.8	0.97124
631.0	0.97142
631.2	0.97226
631.4	0.97123
631.6	0.97013
631.8	0.97212
632.0	0.97224
632.2	0.96965
632.4	0.97323
632.6	0.97403
632.8	0.97571
633.0	0.97763
633.2	0.97853
633.4	0.97887
633.6	0.97823
633.8	0.97541
634.0	0.98083
634.2	0.97904
634.4	0.97995
634.6	0.97804
634.8	0.97457
635.0	0.97937
635.2	0.98129
635.4	0.98598
635.6	0.98601
635.8	0.98221
636.0	0.98209
636.2	0.98394
636.4	0.98361
636.6	0.98427
636.8	0.98231
637.0	0.98291
637.2	0.98502
637.4	0.98351
637.6	0.97946
637.8	0.9791
638.0	0.9834
638.2	0.98535
638.4	0.98567
638.6	0.98082
638.8	0.97968
639.0	0.98085
639.2	0.9824
639.4	0.98074
639.6	0.98072
639.8	0.98018
640.0	0.98248
640.2	0.98177
640.4	0.98302
640.6	0.98699
640.8	0.98597
641.0	0.98647
641.2	0.983
641.4	0.98465
641.6	0.98037
641.8	0.97994
642.0	0.97963
642.2	0.98004
642.4	0.9775
642.6	0.97859
642.8	0.98105
643.0	0.98084
643.2	0.97879
643.4	0.97981
643.6	0.98151
643.8	0.98148
644.0	0.98297
644.2	0.98372
644.4	0.98352
644.6	0.98149
644.8	0.98402
645.0	0.98259
645.2	0.98118
645.4	0.984
645.6	0.98684
645.8	0.9862
646.0	0.98997
646.2	0.99057
646.4	0.98903
646.6	0.98742
646.8	0.9848
647.0	0.98197
647.2	0.98005
647.4	0.98374
647.6	0.98695
647.8	0.98283
648.0	0.98357
648.2	0.98654
648.4	0.98451
648.6	0.98086
648.8	0.97945
649.0	0.98079
649.2	0.97977
649.4	0.98183
649.6	0.97931
649.8	0.98197
650.0	0.98181
650.2	0.97825
650.4	0.97401
650.6	0.97505
650.8	0.9757
651.0	0.97464
651.2	0.97616
651.4	0.97647
651.6	0.97551
651.8	0.97247
652.0	0.97194
652.2	0.97473
652.4	0.97484
652.6	0.97476
652.8	0.97711
653.0	0.97747
653.2	0.97695
653.4	0.97644
653.6	0.97595
653.8	0.97441
654.0	0.97469
654.2	0.97651
654.4	0.97957
654.6	0.97937
654.8	0.97887
655.0	0.97359
655.2	0.97283
655.4	0.97732
655.6	0.97961
655.8	0.97788
656.0	0.97551
656.2	0.97808
656.4	0.97733
656.6	0.9793
656.8	0.9813
657.0	0.9813
657.2	0.97918
657.4	0.9797
657.6	0.98167
657.8	0.98358
658.0	0.97947
658.2	0.97822
658.4	0.97833
658.6	0.97786
658.8	0.97689
659.0	0.97835
659.2	0.97655
659.4	0.97267
659.6	0.9749
659.8	0.97398
660.0	0.9729
660.2	0.97533
660.4	0.97507
660.6	0.97488
660.8	0.97254
661.0	0.97216
661.2	0.97246
661.4	0.9715
661.6	0.97282
661.8	0.97325
662.0	0.97043
662.2	0.9699
662.4	0.9692
662.6	0.97368
662.8	0.9749
663.0	0.97108
663.2	0.97004
663.4	0.97155
663.6	0.97067
663.8	0.97022
664.0	0.968
664.2	0.96759
664.4	0.9653
664.6	0.97014
664.8	0.97069
665.0	0.96584
665.2	0.96385
665.4	0.96655
665.6	0.96647
665.8	0.96384
666.0	0.96366
666.2	0.96777
666.4	0.96708
666.6	0.96917
666.8	0.96932
667.0	0.96688
667.2	0.9675
667.4	0.96992
667.6	0.97232
667.8	0.97087
668.0	0.96944
668.2	0.97108
668.4	0.97255
668.6	0.97386
668.8	0.97569
669.0	0.97688
669.2	0.97554
669.4	0.97585
669.6	0.97778
669.8	0.97336
670.0	0.97432
670.2	0.97635
670.4	0.97775
670.6	0.98131
670.8	0.97701
671.0	0.97125
671.2	0.97203
671.4	0.97371
671.6	0.97324
671.8	0.97529
672.0	0.97582
672.2	0.97844
672.4	0.97691
672.6	0.97605
672.8	0.97769
673.0	0.97749
673.2	0.97556
673.4	0.97708
673.6	0.98047
673.8	0.97971
674.0	0.97782
674.2	0.97801
674.4	0.98193
674.6	0.98239
674.8	0.9786
675.0	0.97938
675.2	0.97604
675.4	0.9737
675.6	0.97765
675.8	0.97784
676.0	0.98107
676.2	0.97949
676.4	0.98028
676.6	0.97804
676.8	0.97745
677.0	0.97558
677.2	0.97484
677.4	0.976
677.6	0.98018
677.8	0.9796
678.0	0.97961
678.2	0.97502
678.4	0.9731
678.6	0.97522
678.8	0.97635
679.0	0.97929
679.2	0.98199
679.4	0.97627
679.6	0.97443
679.8	0.97357
680.0	0.97801
680.2	0.97791
680.4	0.97503
680.6	0.97435
680.8	0.97638
681.0	0.97297
681.2	0.97575
681.4	0.97507
681.6	0.97511
681.8	0.97252
682.0	0.97316
682.2	0.97645
682.4	0.97871
682.6	0.97805
682.8	0.97715
683.0	0.97275
683.2	0.97292
683.4	0.97144
683.6	0.97322
683.8	0.97376
684.0	0.9715
684.2	0.97431
684.4	0.97407
684.6	0.97514
684.8	0.97602
685.0	0.97394
685.2	0.97652
685.4	0.97525
685.6	0.97447
685.8	0.97744
686.0	0.97767
686.2	0.97515
686.4	0.97712
686.6	0.9756
686.8	0.97581
687.0	0.97455
687.2	0.97332
687.4	0.97197
687.6	0.97228
687.8	0.97243
688.0	0.97275
688.2	0.9746
688.4	0.97418
688.6	0.97596
688.8	0.97139
689.0	0.97302
689.2	0.97441
689.4	0.9695
689.6	0.97114
689.8	0.97173
690.0	0.97181
690.2	0.97267
690.4	0.97302
690.6	0.97496
690.8	0.97192
691.0	0.97281
691.2	0.97293
691.4	0.97265
691.6	0.97461
691.8	0.97366
692.0	0.97333
692.2	0.97151
692.4	0.97372
692.6	0.97345
692.8	0.97375
693.0	0.97745
693.2	0.97919
693.4	0.97709
693.6	0.97951
693.8	0.97999
694.0	0.97984
694.2	0.97905
694.4	0.97968
694.6	0.98002
694.8	0.98235
695.0	0.97978
695.2	0.98387
695.4	0.98619
695.6	0.98426
695.8	0.98374
696.0	0.98282
696.2	0.98544
696.4	0.9884
696.6	0.98519
696.8	0.98526
697.0	0.98329
697.2	0.98169
697.4	0.98547
697.6	0.98556
697.8	0.98165
698.0	0.98034
698.2	0.98087
698.4	0.97859
698.6	0.9775
698.8	0.97726
699.0	0.97705
699.2	0.97595
699.4	0.97497
699.6	0.97801
699.8	0.97729
700.0	0.97886
700.2	0.97712
700.4	0.97575
700.6	0.97109
700.8	0.97392
701.0	0.9758
701.2	0.97761
701.4	0.97736
701.6	0.97682
701.8	0.97765
702.0	0.9811
702.2	0.98021
702.4	0.97722
702.6	0.97825
702.8	0.97685
703.0	0.97523
703.2	0.97639
703.4	0.97515
703.6	0.97145
703.8	0.97108
704.0	0.96946
704.2	0.97201
704.4	0.97648
704.6	0.97676
704.8	0.97777
705.0	0.97499
705.2	0.97305
705.4	0.97086
705.6	0.97629
705.8	0.97769
706.0	0.97555
706.2	0.975
706.4	0.97452
706.6	0.97293
706.8	0.97115
707.0	0.97145
707.2	0.97555
707.4	0.97603
707.6	0.96929
707.8	0.97103
708.0	0.97427
708.2	0.97682
708.4	0.97869
708.6	0.97608
708.8	0.97081
709.0	0.96961
709.2	0.97075
709.4	0.97557
709.6	0.97524
709.8	0.97297
710.0	0.97479
710.2	0.9719
710.4	0.97217
710.6	0.97229
710.8	0.97446
711.0	0.97205
711.2	0.9704
711.4	0.97331
711.6	0.97257
711.8	0.97356
712.0	0.97081
712.2	0.96697
712.4	0.9668
712.6	0.96962
712.8	0.96774
713.0	0.97089
713.2	0.97542
713.4	0.97511
713.6	0.97217
713.8	0.96591
714.0	0.96555
714.2	0.96987
714.4	0.97066
714.6	0.96836
714.8	0.96873
715.0	0.9721
715.2	0.97312
715.4	0.96929
715.6	0.97043
715.8	0.97177
716.0	0.96689
716.2	0.9668
716.4	0.97078
716.6	0.97193
716.8	0.97085
717.0	0.96898
717.2	0.96847
717.4	0.97143
717.6	0.97262
717.8	0.97296
718.0	0.97398
718.2	0.97263
718.4	0.97638
718.6	0.97853
718.8	0.97581
719.0	0.9757
719.2	0.97256
719.4	0.9713
719.6	0.97364
719.8	0.9771
720.0	0.97724
720.2	0.97638
720.4	0.97698
720.6	0.97313
720.8	0.97157
721.0	0.9744
721.2	0.97422
721.4	0.97368
721.6	0.97599
721.8	0.97807
722.0	0.97667
722.2	0.97443
722.4	0.97548
722.6	0.97456
722.8	0.97305
723.0	0.97357
723.2	0.9742
723.4	0.97663
723.6	0.97739
723.8	0.97733
724.0	0.97616
724.2	0.97455
724.4	0.97303
724.6	0.96963
724.8	0.96938
725.0	0.97253
725.2	0.97563
725.4	0.97376
725.6	0.97358
725.8	0.97105
726.0	0.97028
726.2	0.96877
726.4	0.96632
726.6	0.9663
726.8	0.96581
727.0	0.96752
727.2	0.9678
727.4	0.96886
727.6	0.96602
727.8	0.96539
728.0	0.96748
728.2	0.96812
728.4	0.96319
728.6	0.96016
728.8	0.96275
729.0	0.96237
729.2	0.9561
729.4	0.95465
729.6	0.95959
729.8	0.96142
730.0	0.963
730.2	0.96342
730.4	0.96137
730.6	0.95719
730.8	0.95555
731.0	0.95911
731.2	0.96008
731.4	0.96208
731.6	0.95843
731.8	0.95747
732.0	0.95934
732.2	0.96231
732.4	0.95828
732.6	0.95733
732.8	0.96209
733.0	0.96585
733.2	0.96597
733.4	0.96446
733.6	0.9626
733.8	0.9646
734.0	0.96632
734.2	0.97008
734.4	0.96949
734.6	0.96762
734.8	0.96632
735.0	0.96832
735.2	0.97275
735.4	0.97469
735.6	0.97465
735.8	0.97217
736.0	0.97462
736.2	0.97332
736.4	0.97539
736.6	0.97761
736.8	0.97896
737.0	0.97872
737.2	0.97387
737.4	0.97156
737.6	0.97078
737.8	0.96967
738.0	0.96931
738.2	0.96528
738.4	0.96776
738.6	0.97216
738.8	0.97162
739.0	0.96925
739.2	0.96605
739.4	0.96773
739.6	0.96985
739.8	0.97331
740.0	0.97254
740.2	0.97159
740.4	0.96819
740.6	0.97043
740.8	0.97156
741.0	0.97198
741.2	0.97258
741.4	0.97304
741.6	0.97543
741.8	0.97436
742.0	0.9733
742.2	0.97135
742.4	0.9715
742.6	0.97409
742.8	0.97228
743.0	0.9711
743.2	0.96947
743.4	0.96917
743.6	0.9684
743.8	0.96791
744.0	0.97337
744.2	0.97101
744.4	0.97307
744.6	0.97307
744.8	0.97498
745.0	0.97491
745.2	0.97204
745.4	0.97244
745.6	0.97247
745.8	0.97158
746.0	0.97317
746.2	0.97539
746.4	0.97422
746.6	0.97288
746.8	0.96896
747.0	0.96657
747.2	0.96615
747.4	0.96774
747.6	0.9679
747.8	0.96609
748.0	0.96648
748.2	0.96904
748.4	0.97151
748.6	0.97156
748.8	0.96825
749.0	0.96425
749.2	0.96577
749.4	0.96967
749.6	0.96989
749.8	0.96793
750.0	0.96873
750.2	0.97138
750.4	0.97039
750.6	0.96614
750.8	0.96269
751.0	0.96761
751.2	0.97195
751.4	0.97274
751.6	0.97166
751.8	0.96896
752.0	0.96379
752.2	0.96046
752.4	0.96446
752.6	0.96666
752.8	0.96632
753.0	0.9672
753.2	0.96883
753.4	0.97147
753.6	0.96993
753.8	0.97096
754.0	0.97072
754.2	0.9717
754.4	0.96866
754.6	0.96728
754.8	0.9697
755.0	0.96566
755.2	0.96657
755.4	0.9685
755.6	0.96679
755.8	0.9646
756.0	0.95846
756.2	0.96187
756.4	0.962
756.6	0.96099
756.8	0.96019
757.0	0.96254
757.2	0.9642
757.4	0.96965
757.6	0.9684
757.8	0.96686
758.0	0.96404
758.2	0.96711
758.4	0.96818
758.6	0.96762
758.8	0.96804
759.0	0.96492
759.2	0.96338
759.4	0.96255
759.6	0.96417
759.8	0.9625
760.0	0.96274
760.2	0.9667
760.4	0.9671
760.6	0.96206
760.8	0.96124
761.0	0.96308
761.2	0.96446
761.4	0.96659
761.6	0.9659
761.8	0.96641
762.0	0.96746
762.2	0.96522
762.4	0.96531
762.6	0.96319
762.8	0.96229
763.0	0.96098
763.2	0.95873
763.4	0.95779
763.6	0.95771
763.8	0.95894
764.0	0.95741
764.2	0.96209
764.4	0.96658
764.6	0.96947
764.8	0.96534
765.0	0.96119
765.2	0.96307
765.4	0.96616
765.6	0.96383
765.8	0.96281
766.0	0.96553
766.2	0.96729
766.4	0.97055
766.6	0.97313
766.8	0.97316
767.0	0.97487
767.2	0.97584
767.4	0.9691
767.6	0.96424
767.8	0.96684
768.0	0.96787
768.2	0.96802
768.4	0.96915
768.6	0.97146
768.8	0.96801
769.0	0.96563
769.2	0.9623
769.4	0.96087
769.6	0.96295
769.8	0.96355
770.0	0.96634
770.2	0.97267
770.4	0.97627
770.6	0.97458
770.8	0.97295
771.0	0.97237
771.2	0.96622
771.4	0.96482
771.6	0.96798
771.8	0.96872
772.0	0.96621
772.2	0.96858
772.4	0.97324
772.6	0.97452
772.8	0.97841
773.0	0.98072
773.2	0.97852
773.4	0.97604
773.6	0.97353
773.8	0.97405
774.0	0.97039
774.2	0.96762
774.4	0.97239
774.6	0.97597
774.8	0.97434
775.0	0.9721
775.2	0.96806
775.4	0.96688
775.6	0.967
775.8	0.97003
776.0	0.97029
776.2	0.97102
776.4	0.96759
776.6	0.967
776.8	0.96629
777.0	0.96715
777.2	0.96755
777.4	0.96677
777.6	0.96611
777.8	0.96604
778.0	0.96447
778.2	0.96163
778.4	0.95644
778.6	0.95694
778.8	0.95982
779.0	0.9631
779.2	0.96599
779.4	0.96422
779.6	0.96418
779.8	0.96394
780.0	0.96669
780.2	0.9662
780.4	0.96548
780.6	0.96127
780.8	0.95267
781.0	0.95367
781.2	0.95542
781.4	0.9556
781.6	0.95696
781.8	0.9552
782.0	0.95275
782.2	0.95331
782.4	0.9563
782.6	0.95384
782.8	0.95669
783.0	0.9608
783.2	0.95978
783.4	0.95858
783.6	0.95635
783.8	0.95533
784.0	0.95419
784.2	0.95669
784.4	0.95762
784.6	0.95882
784.8	0.96093
785.0	0.96057
785.2	0.95918
785.4	0.96183
785.6	0.96329
785.8	0.96522
786.0	0.9634
786.2	0.95568
786.4	0.9551
786.6	0.9575
786.8	0.96502
787.0	0.96688
787.2	0.96339
787.4	0.95804
787.6	0.95737
787.8	0.95771
788.0	0.95689
788.2	0.95477
788.4	0.95653
788.6	0.95961
788.8	0.96383
789.0	0.96228
789.2	0.96027
789.4	0.96123
789.6	0.96051
789.8	0.96232
790.0	0.9625
790.2	0.96472
790.4	0.96407
790.6	0.96242
790.8	0.96513
791.0	0.96721
791.2	0.96845
791.4	0.9712
791.6	0.96792
791.8	0.96584
792.0	0.96631
792.2	0.96207
792.4	0.9625
792.6	0.96419
792.8	0.966
793.0	0.9635
793.2	0.96292
793.4	0.96668
793.6	0.96776
793.8	0.96581
794.0	0.96439
794.2	0.96789
794.4	0.97272
794.6	0.97335
794.8	0.96914
795.0	0.9663
795.2	0.96577
795.4	0.96956
795.6	0.9669
795.8	0.96519
796.0	0.96925
796.2	0.96814
796.4	0.96632
796.6	0.96969
796.8	0.97322
797.0	0.97099
797.2	0.97014
797.4	0.97189
797.6	0.96973
797.8	0.96847
798.0	0.96444
798.2	0.96759
798.4	0.97296
798.6	0.97404
798.8	0.9738
799.0	0.97379
799.2	0.97141
799.4	0.96627
799.6	0.96678
799.8	0.96813
800.0	0.96913
800.2	0.96334
800.4	0.96351
800.6	0.96495
800.8	0.96838
801.0	0.96793
801.2	0.96987
801.4	0.96942
801.6	0.96443
801.8	0.96542
802.0	0.96976
802.2	0.97039
802.4	0.96691
802.6	0.96777
802.8	0.9674
803.0	0.96702
803.2	0.96616
803.4	0.96507
803.6	0.96546
803.8	0.96521
804.0	0.96386
804.2	0.96251
804.4	0.96236
804.6	0.96246
804.8	0.96368
805.0	0.96467
805.2	0.96312
805.4	0.96173
805.6	0.96224
805.8	0.96144
806.0	0.95909
806.2	0.95688
806.4	0.95758
806.6	0.96053
806.8	0.96723
807.0	0.96799
807.2	0.96599
807.4	0.96587
807.6	0.96046
807.8	0.95771
808.0	0.95955
808.2	0.95875
808.4	0.95782
808.6	0.95912
808.8	0.95872
809.0	0.95562
809.2	0.95742
809.4	0.95856
809.6	0.9588
809.8	0.9542
810.0	0.95584
810.2	0.95679
810.4	0.95283
810.6	0.95531
810.8	0.95845
811.0	0.95969
811.2	0.95771
811.4	0.95682
811.6	0.9546
811.8	0.95102
812.0	0.95121
812.2	0.95084
812.4	0.95049
812.6	0.94824
812.8	0.94706
813.0	0.94666
813.2	0.94519
813.4	0.94773
813.6	0.95063
813.8	0.95045
814.0	0.95114
814.2	0.95108
814.4	0.9525
814.6	0.95122
814.8	0.94987
815.0	0.94879
815.2	0.94773
815.4	0.94475
815.6	0.94153
815.8	0.94281
816.0	0.94343
816.2	0.94658
816.4	0.95225
816.6	0.95739
816.8	0.95447
817.0	0.9472
817.2	0.94348
817.4	0.94176
817.6	0.94021
817.8	0.9459
818.0	0.94514
818.2	0.94319
818.4	0.94533
818.6	0.94673
818.8	0.95193
819.0	0.95322
819.2	0.95308
819.4	0.95053
819.6	0.94707
819.8	0.94763
820.0	0.95142
820.2	0.95296
820.4	0.95567
820.6	0.95676
820.8	0.95275
821.0	0.94962
821.2	0.95137
821.4	0.95747
821.6	0.95582
821.8	0.95417
822.0	0.95584
822.2	0.9595
822.4	0.96117
822.6	0.96097
822.8	0.96229
823.0	0.9643
823.2	0.96377
823.4	0.96375
823.6	0.96617
823.8	0.96814
824.0	0.96877
824.2	0.96698
824.4	0.9663
824.6	0.96862
824.8	0.96844
825.0	0.96782
825.2	0.96541
825.4	0.96333
825.6	0.96114
825.8	0.96405
826.0	0.96601
826.2	0.96318
826.4	0.96418
826.6	0.9658
826.8	0.96918
827.0	0.97264
827.2	0.97416
827.4	0.97563
827.6	0.9735
827.8	0.96863
828.0	0.9648
828.2	0.96646
828.4	0.97024
828.6	0.97253
828.8	0.97254
829.0	0.97138
829.2	0.9661
829.4	0.96321
829.6	0.96801
829.8	0.97191
830.0	0.96871
830.2	0.96259
830.4	0.95992
830.6	0.95978
830.8	0.9655
831.0	0.96732
831.2	0.96704
831.4	0.96526
831.6	0.96593
831.8	0.96262
832.0	0.95864
832.2	0.95999
832.4	0.96352
832.6	0.96431
832.8	0.96158
833.0	0.96027
833.2	0.96131
833.4	0.96124
833.6	0.96051
833.8	0.95541
834.0	0.94863
834.2	0.95245
834.4	0.95909
834.6	0.96493
834.8	0.96891
835.0	0.96735
835.2	0.96201
835.4	0.96117
835.6	0.9614
835.8	0.96087
836.0	0.95929
836.2	0.95913
836.4	0.95824
836.6	0.96241
836.8	0.96429
837.0	0.96152
837.2	0.9563
837.4	0.95469
837.6	0.95796
837.8	0.95912
838.0	0.96244
838.2	0.96364
838.4	0.95752
838.6	0.95487
838.8	0.95392
839.0	0.95547
839.2	0.95536
839.4	0.95273
839.6	0.95229
839.8	0.94918
840.0	0.94914
840.2	0.95056
840.4	0.94922
840.6	0.94755
840.8	0.94696
841.0	0.94981
841.2	0.95069
841.4	0.95035
841.6	0.95211
841.8	0.95392
842.0	0.95344
842.2	0.95246
842.4	0.95025
842.6	0.9527
842.8	0.9506
843.0	0.94949
843.2	0.94917
843.4	0.94564
843.6	0.94737
843.8	0.94887
844.0	0.94716
844.2	0.94541
844.4	0.94447
844.6	0.94391
844.8	0.94786
845.0	0.94709
845.2	0.94686
845.4	0.94559
845.6	0.94586
845.8	0.94549
846.0	0.94444
846.2	0.94012
846.4	0.9387
846.6	0.94101
846.8	0.94251
847.0	0.94173
847.2	0.93973
847.4	0.94484
847.6	0.94957
847.8	0.9498
848.0	0.94889
848.2	0.94464
848.4	0.94501
848.6	0.94791
848.8	0.94662
849.0	0.94424
849.2	0.94498
849.4	0.9445
849.6	0.94249
849.8	0.94268
850.0	0.94188
850.2	0.94183
850.4	0.94399
850.6	0.94636
850.8	0.94577
851.0	0.94485
851.2	0.94554
851.4	0.94581
851.6	0.94798
851.8	0.95276
852.0	0.95036
852.2	0.95325
852.4	0.95649
852.6	0.95483
852.8	0.95009
853.0	0.95001
853.2	0.94915
853.4	0.9502
853.6	0.95019
853.8	0.95245
854.0	0.95161
854.2	0.95434
854.4	0.95753
854.6	0.9616
854.8	0.96467
855.0	0.96075
855.2	0.95665
855.4	0.95638
855.6	0.95697
855.8	0.95842
856.0	0.95625
856.2	0.95416
856.4	0.95151
856.6	0.95253
856.8	0.9526
857.0	0.94762
857.2	0.94597
857.4	0.94858
857.6	0.95257
857.8	0.95511
858.0	0.95684
858.2	0.9598
858.4	0.95955
858.6	0.95473
858.8	0.95317
859.0	0.95366
859.2	0.95606
859.4	0.95646
859.6	0.95541
859.8	0.95745
860.0	0.95991
860.2	0.96177
860.4	0.95931
860.6	0.95869
860.8	0.95803
861.0	0.95493
861.2	0.95393
861.4	0.95609
861.6	0.96016
861.8	0.95858
862.0	0.95485
862.2	0.95437
862.4	0.95529
862.6	0.9574
862.8	0.96245
863.0	0.96716
863.2	0.96833
863.4	0.96968
863.6	0.96961
863.8	0.96702
864.0	0.96532
864.2	0.96737
864.4	0.97149
864.6	0.97378
864.8	0.97162
865.0	0.96791
865.2	0.96638
865.4	0.96656
865.6	0.96696
865.8	0.96616
866.0	0.96229
866.2	0.96436
866.4	0.96773
866.6	0.96795
866.8	0.96558
867.0	0.96499
867.2	0.96629
867.4	0.96892
867.6	0.97324
867.8	0.96934
868.0	0.96674
868.2	0.96476
868.4	0.96227
868.6	0.96105
868.8	0.96692
869.0	0.9721
869.2	0.96843
869.4	0.96452
869.6	0.95878
869.8	0.95416
870.0	0.95341
870.2	0.95697
870.4	0.95852
870.6	0.96411
870.8	0.96899
871.0	0.96965
871.2	0.96436
871.4	0.9572
871.6	0.95286
871.8	0.95498
872.0	0.95788
872.2	0.95674
872.4	0.95642
872.6	0.95927
872.8	0.96287
873.0	0.96197
873.2	0.96041
873.4	0.95785
873.6	0.95523
873.8	0.95362
874.0	0.95441
874.2	0.95355
874.4	0.95523
874.6	0.95833
874.8	0.95684
875.0	0.95917
875.2	0.95887
875.4	0.9576
875.6	0.95861
875.8	0.96089
876.0	0.96196
876.2	0.95843
876.4	0.95245
876.6	0.9519
876.8	0.9543
877.0	0.95634
877.2	0.9554
877.4	0.95367
877.6	0.95201
877.8	0.95505
878.0	0.95835
878.2	0.96112
878.4	0.96395
878.6	0.96295
878.8	0.95563
879.0	0.94914
879.2	0.94642
879.4	0.94608
879.6	0.94772
879.8	0.9515
880.0	0.95364
880.2	0.95718
880.4	0.95446
880.6	0.95241
880.8	0.95083
881.0	0.94783
881.2	0.94779
881.4	0.95101
881.6	0.95105
881.8	0.95043
882.0	0.95104
882.2	0.95094
882.4	0.95306
882.6	0.95758
882.8	0.95699
883.0	0.95622
883.2	0.95425
883.4	0.94825
883.6	0.94828
883.8	0.95128
884.0	0.95345
884.2	0.95153
884.4	0.94904
884.6	0.94789
884.8	0.94902
885.0	0.95116
885.2	0.95121
885.4	0.94994
885.6	0.94623
885.8	0.94683
886.0	0.9488
886.2	0.94746
886.4	0.94527
886.6	0.94496
886.8	0.94836
887.0	0.95043
887.2	0.95226
887.4	0.95607
887.6	0.95737
887.8	0.95625
888.0	0.95837
888.2	0.95879
888.4	0.95893
888.6	0.95923
888.8	0.95941
889.0	0.95885
889.2	0.96024
889.4	0.9624
889.6	0.96615
889.8	0.96641
890.0	0.96704
890.2	0.9617
890.4	0.95678
890.6	0.95661
890.8	0.95666
891.0	0.95703
891.2	0.95637
891.4	0.95585
891.6	0.95829
891.8	0.95748
892.0	0.95432
892.2	0.95611
892.4	0.95367
892.6	0.95012
892.8	0.94848
893.0	0.95162
893.2	0.95355
893.4	0.95269
893.6	0.95419
893.8	0.95537
894.0	0.95763
894.2	0.95769
894.4	0.95908
894.6	0.95724
894.8	0.95834
895.0	0.96087
895.2	0.96235
895.4	0.96382
895.6	0.96174
895.8	0.95449
896.0	0.95273
896.2	0.95719
896.4	0.96086
896.6	0.95874
896.8	0.95647
897.0	0.95806
897.2	0.95829
897.4	0.96032
897.6	0.95906
897.8	0.95928
898.0	0.95678
898.2	0.95679
898.4	0.96101
898.6	0.96208
898.8	0.9622
899.0	0.95812
899.2	0.95973
899.4	0.96142
899.6	0.96125
899.8	0.96382
900.0	0.96215
900.2	0.95831
900.4	0.95545
900.6	0.95513
900.8	0.95531
901.0	0.95745
901.2	0.95864
901.4	0.95908
901.6	0.962
901.8	0.9674
902.0	0.96716
902.2	0.96327
902.4	0.9621
902.6	0.96214
902.8	0.96112
903.0	0.95858
903.2	0.95924
903.4	0.9637
903.6	0.96843
903.8	0.96732
904.0	0.96571
904.2	0.96579
904.4	0.96404
904.6	0.96384
904.8	0.96764
905.0	0.96376
905.2	0.95916
905.4	0.9558
905.6	0.95476
905.8	0.95798
906.0	0.95949
906.2	0.95858
906.4	0.95584
906.6	0.95868
906.8	0.96375
907.0	0.97018
907.2	0.97228
907.4	0.97073
907.6	0.96477
907.8	0.95972
908.0	0.96279
908.2	0.9643
908.4	0.96316
908.6	0.95714
908.8	0.9533
909.0	0.95236
909.2	0.95601
909.4	0.95948
909.6	0.9577
909.8	0.95444
910.0	0.95631
910.2	0.95701
910.4	0.95852
910.6	0.96208
910.8	0.95861
911.0	0.95627
911.2	0.95782
911.4	0.95742
911.6	0.95562
911.8	0.95407
912.0	0.95537
912.2	0.95479
912.4	0.95153
912.6	0.9513
912.8	0.954
913.0	0.95747
913.2	0.95611
913.4	0.95594
913.6	0.95674
913.8	0.95427
914.0	0.95427
914.2	0.95186
914.4	0.94766
914.6	0.94446
914.8	0.9456
915.0	0.94819
915.2	0.94675
915.4	0.94428
915.6	0.94471
915.8	0.94579
916.0	0.94799
916.2	0.94354
916.4	0.94089
916.6	0.93908
916.8	0.94116
917.0	0.94415
917.2	0.94253
917.4	0.9434
917.6	0.94626
917.8	0.94571
918.0	0.94303
918.2	0.94406
918.4	0.9476
918.6	0.94981
918.8	0.94934
919.0	0.94407
919.2	0.93737
919.4	0.93729
919.6	0.93954
919.8	0.9392
920.0	0.93932
920.2	0.94082
920.4	0.94056
920.6	0.93922
920.8	0.93775
921.0	0.94071
921.2	0.94251
921.4	0.94392
921.6	0.94176
921.8	0.94163
922.0	0.93977
922.2	0.9365
922.4	0.93993
922.6	0.94563
922.8	0.94429
923.0	0.94369
923.2	0.94888
923.4	0.95421
923.6	0.95362
923.8	0.95106
924.0	0.95118
924.2	0.95196
924.4	0.95283
924.6	0.95211
924.8	0.95058
925.0	0.94989
925.2	0.95062
925.4	0.94962
925.6	0.94729
925.8	0.94662
926.0	0.94729
926.2	0.94962
926.4	0.95025
926.6	0.94865
926.8	0.94506
927.0	0.94399
927.2	0.94302
927.4	0.94205
927.6	0.94005
927.8	0.93571
928.0	0.93302
928.2	0.93219
928.4	0.9348
928.6	0.93665
928.8	0.93724
929.0	0.93739
929.2	0.93644
929.4	0.93654
929.6	0.93571
929.8	0.9379
930.0	0.943
930.2	0.94786
930.4	0.95068
930.6	0.95023
930.8	0.94724
931.0	0.94434
931.2	0.94219
931.4	0.94078
931.6	0.94928
931.8	0.95408
932.0	0.95556
932.2	0.95973
932.4	0.96521
932.6	0.96813
932.8	0.9645
933.0	0.95971
933.2	0.95725
933.4	0.95748
933.6	0.95967
933.8	0.96312
934.0	0.95893
934.2	0.95129
934.4	0.94925
934.6	0.95038
934.8	0.94667
935.0	0.94714
935.2	0.9515
935.4	0.95384
935.6	0.95739
935.8	0.95946
936.0	0.95651
936.2	0.95392
936.4	0.9539
936.6	0.95488
936.8	0.95452
937.0	0.95127
937.2	0.94781
937.4	0.95064
937.6	0.95338
937.8	0.95404
938.0	0.95554
938.2	0.95762
938.4	0.95616
938.6	0.96003
938.8	0.96072
939.0	0.95986
939.2	0.95938
939.4	0.95085
939.6	0.94888
939.8	0.94828
940.0	0.94773
940.2	0.94761
940.4	0.95108
940.6	0.95374
940.8	0.95221
941.0	0.95057
941.2	0.95128
941.4	0.95348
941.6	0.95132
941.8	0.95226
942.0	0.95291
942.2	0.95257
942.4	0.9509
942.6	0.94921
942.8	0.9492
943.0	0.94793
943.2	0.94737
943.4	0.94485
943.6	0.94524
943.8	0.94935
944.0	0.95077
944.2	0.94753
944.4	0.94482
944.6	0.94383
944.8	0.94027
945.0	0.94135
945.2	0.94851
945.4	0.95236
945.6	0.95342
945.8	0.95519
946.0	0.95474
946.2	0.9529
946.4	0.95258
946.6	0.95301
946.8	0.94975
947.0	0.94559
947.2	0.94858
947.4	0.94807
947.6	0.94434
947.8	0.93999
948.0	0.93955
948.2	0.94144
948.4	0.93957
948.6	0.94119
948.8	0.9485
949.0	0.95047
949.2	0.95239
949.4	0.95275
949.6	0.94619
949.8	0.93946
950.0	0.93938
950.2	0.94442
950.4	0.94484
950.6	0.94485
950.8	0.94632
951.0	0.9465
951.2	0.94553
951.4	0.9489
951.6	0.94796
951.8	0.945
952.0	0.94723
952.2	0.94734
952.4	0.9453
952.6	0.93828
952.8	0.93824
953.0	0.94226
953.2	0.94866
953.4	0.95113
953.6	0.95046
953.8	0.94952
954.0	0.94877
954.2	0.94434
954.4	0.94221
954.6	0.94484
954.8	0.94779
955.0	0.95233
955.2	0.95086
955.4	0.9477
955.6	0.94484
955.8	0.94666
956.0	0.95361
956.2	0.95498
956.4	0.95567
956.6	0.96074
956.8	0.96027
957.0	0.96046
957.2	0.95917
957.4	0.95354
957.6	0.95476
957.8	0.95723
958.0	0.95579
958.2	0.95558
958.4	0.95596
958.6	0.95734
958.8	0.96054
959.0	0.9608
959.2	0.96076
959.4	0.96046
959.6	0.96114
959.8	0.95623
960.0	0.95244

-----------------------------7dc2c2cd0576--
